# Units: length:mm angle:deg time:s strain:% 
# Stage: image-000000
stage;index;relative_time;date
"image-000000";1;0.0000;"2022-09-26T12:06:14.973"
# Name : surface_yz_30/15
id;x;y;z;epsilon_x;epsilon_y;pattern_quality
0;-1.0959;3.5784;0.0000;0.0000;0.0000;5.5599
1;-0.9539;3.5756;0.0000;0.0000;0.0000;4.0542
2;-0.8125;3.5723;0.0000;0.0000;0.0000;3.7507
3;-0.6716;3.5685;0.0000;0.0000;0.0000;3.7857
4;-0.5311;3.5636;0.0000;0.0000;0.0000;4.6601
5;-0.3913;3.5583;0.0000;0.0000;0.0000;6.3001
6;-0.2519;3.5526;0.0000;0.0000;0.0000;6.6990
7;-0.1128;3.5468;0.0000;0.0000;0.0000;6.2476
8;0.0266;3.5413;0.0000;0.0000;0.0000;6.5420
9;0.1665;3.5360;0.0000;0.0000;0.0000;6.7655
10;0.3063;3.5307;0.0000;0.0000;0.0000;6.6636
11;0.4457;3.5256;0.0000;0.0000;0.0000;5.6807
12;0.5850;3.5206;0.0000;0.0000;0.0000;6.2345
13;0.7242;3.5147;0.0000;0.0000;0.0000;6.3880
14;0.8634;3.5086;0.0000;0.0000;0.0000;5.4484
15;1.0025;3.5030;0.0000;0.0000;0.0000;4.8508
16;1.1414;3.4973;0.0000;0.0000;0.0000;4.8775
17;1.2803;3.4913;0.0000;0.0000;0.0000;4.3071
18;1.3674;3.4138;0.0000;0.0000;0.0000;4.1916
19;1.3666;3.2682;0.0000;0.0000;0.0000;4.9624
20;1.3661;3.1232;0.0000;0.0000;0.0000;5.6833
21;1.3668;2.9790;0.0000;0.0000;0.0000;5.8508
22;1.3681;2.8358;0.0000;0.0000;0.0000;4.9055
23;1.3697;2.6933;0.0000;0.0000;0.0000;5.0494
24;1.3713;2.5507;0.0000;0.0000;0.0000;4.9427
25;1.3730;2.4080;0.0000;0.0000;0.0000;5.5223
26;1.3747;2.2655;0.0000;0.0000;0.0000;5.6728
27;1.3764;2.1229;0.0000;0.0000;0.0000;5.3587
28;1.3781;1.9803;0.0000;0.0000;0.0000;4.8355
29;1.3798;1.8378;0.0000;0.0000;0.0000;4.6339
30;1.3815;1.6952;0.0000;0.0000;0.0000;5.0949
31;1.3832;1.5526;0.0000;0.0000;0.0000;5.2822
32;1.3850;1.4100;0.0000;0.0000;0.0000;5.0179
33;1.3867;1.2675;0.0000;0.0000;0.0000;5.0822
34;1.3884;1.1249;0.0000;0.0000;0.0000;5.5087
35;1.3901;0.9823;0.0000;0.0000;0.0000;4.7616
36;1.3918;0.8398;0.0000;0.0000;0.0000;3.9322
37;1.3935;0.6973;0.0000;0.0000;0.0000;4.0372
38;1.3953;0.5547;0.0000;0.0000;0.0000;2.9374
39;1.3972;0.4121;0.0000;0.0000;0.0000;4.2021
40;1.3987;0.2696;0.0000;0.0000;0.0000;6.2349
41;1.4004;0.1270;0.0000;0.0000;0.0000;5.3626
42;1.4022;-0.0157;0.0000;0.0000;0.0000;5.0696
43;1.4039;-0.1583;0.0000;0.0000;0.0000;5.0997
44;1.4056;-0.3008;0.0000;0.0000;0.0000;5.6387
45;1.4074;-0.4433;0.0000;0.0000;0.0000;5.7625
46;1.4091;-0.5859;0.0000;0.0000;0.0000;4.4904
47;1.4109;-0.7286;0.0000;0.0000;0.0000;4.8609
48;1.4126;-0.8711;0.0000;0.0000;0.0000;5.5626
49;1.4143;-1.0136;0.0000;0.0000;0.0000;4.7397
50;1.4161;-1.1561;0.0000;0.0000;0.0000;5.3377
51;1.4179;-1.2987;0.0000;0.0000;0.0000;5.3193
52;1.4197;-1.4413;0.0000;0.0000;0.0000;4.0612
53;1.4214;-1.5839;0.0000;0.0000;0.0000;3.4243
54;1.4232;-1.7265;0.0000;0.0000;0.0000;4.7292
55;1.4250;-1.8692;0.0000;0.0000;0.0000;5.4781
56;1.4267;-2.0117;0.0000;0.0000;0.0000;5.4287
57;1.4284;-2.1544;0.0000;0.0000;0.0000;4.5341
58;1.4302;-2.2970;0.0000;0.0000;0.0000;4.5534
59;1.4320;-2.4395;0.0000;0.0000;0.0000;5.8766
60;1.4338;-2.5821;0.0000;0.0000;0.0000;5.7857
61;1.4355;-2.7246;0.0000;0.0000;0.0000;5.4536
62;1.4372;-2.8672;0.0000;0.0000;0.0000;5.4759
63;1.4390;-3.0099;0.0000;0.0000;0.0000;4.3276
64;1.4409;-3.1525;0.0000;0.0000;0.0000;4.2279
65;1.4426;-3.2950;0.0000;0.0000;0.0000;5.0061
66;1.4443;-3.4376;0.0000;0.0000;0.0000;5.0499
67;1.4461;-3.5803;0.0000;0.0000;0.0000;5.5752
68;1.4479;-3.7229;0.0000;0.0000;0.0000;5.9199
69;1.4497;-3.8654;0.0000;0.0000;0.0000;5.0420
70;1.4515;-4.0080;0.0000;0.0000;0.0000;5.1960
71;1.4532;-4.1506;0.0000;0.0000;0.0000;6.0389
72;1.4550;-4.2931;0.0000;0.0000;0.0000;5.1890
73;1.4568;-4.4356;0.0000;0.0000;0.0000;5.0262
74;1.4586;-4.5782;0.0000;0.0000;0.0000;5.5044
75;1.4603;-4.7208;0.0000;0.0000;0.0000;5.5722
76;1.4620;-4.8634;0.0000;0.0000;0.0000;5.5586
77;1.4639;-5.0060;0.0000;0.0000;0.0000;5.3508
78;1.4657;-5.1485;0.0000;0.0000;0.0000;5.6369
79;1.4673;-5.2911;0.0000;0.0000;0.0000;5.9252
80;1.4691;-5.4337;0.0000;0.0000;0.0000;5.1391
81;1.4710;-5.5763;0.0000;0.0000;0.0000;5.6260
82;1.4728;-5.7188;0.0000;0.0000;0.0000;6.6535
83;1.4555;-5.8457;0.0000;0.0000;0.0000;5.5599
84;1.3141;-5.8533;0.0000;0.0000;0.0000;5.1203
85;1.1721;-5.8527;0.0000;0.0000;0.0000;6.2406
86;1.0301;-5.8520;0.0000;0.0000;0.0000;6.6028
87;0.8880;-5.8515;0.0000;0.0000;0.0000;6.2572
88;0.7460;-5.8509;0.0000;0.0000;0.0000;6.1640
89;0.6039;-5.8502;0.0000;0.0000;0.0000;6.2927
90;0.4619;-5.8496;0.0000;0.0000;0.0000;6.0897
91;0.3199;-5.8490;0.0000;0.0000;0.0000;6.4370
92;0.1778;-5.8483;0.0000;0.0000;0.0000;6.9414
93;0.0358;-5.8477;0.0000;0.0000;0.0000;6.8023
94;-0.1061;-5.8470;0.0000;0.0000;0.0000;6.9265
95;-0.2482;-5.8464;0.0000;0.0000;0.0000;6.9401
96;-0.3902;-5.8457;0.0000;0.0000;0.0000;6.1518
97;-0.5322;-5.8451;0.0000;0.0000;0.0000;4.7489
98;-0.6742;-5.8446;0.0000;0.0000;0.0000;5.6780
99;-0.8162;-5.8439;0.0000;0.0000;0.0000;6.1164
100;-0.9582;-5.8427;0.0000;0.0000;0.0000;5.3259
101;-1.0005;-5.7404;0.0000;0.0000;0.0000;6.0219
102;-1.0027;-5.5979;0.0000;0.0000;0.0000;6.0096
103;-1.0050;-5.4554;0.0000;0.0000;0.0000;6.2445
104;-1.0074;-5.3128;0.0000;0.0000;0.0000;6.2183
105;-1.0096;-5.1702;0.0000;0.0000;0.0000;5.6553
106;-1.0119;-5.0276;0.0000;0.0000;0.0000;7.1999
107;-1.0141;-4.8850;0.0000;0.0000;0.0000;5.0223
108;-1.0164;-4.7426;0.0000;0.0000;0.0000;4.3727
109;-1.0187;-4.6000;0.0000;0.0000;0.0000;5.4471
110;-1.0210;-4.4573;0.0000;0.0000;0.0000;5.7826
111;-1.0232;-4.3147;0.0000;0.0000;0.0000;5.6601
112;-1.0255;-4.1722;0.0000;0.0000;0.0000;6.7279
113;-1.0278;-4.0296;0.0000;0.0000;0.0000;6.8841
114;-1.0300;-3.8870;0.0000;0.0000;0.0000;5.4143
115;-1.0323;-3.7444;0.0000;0.0000;0.0000;6.1500
116;-1.0346;-3.6018;0.0000;0.0000;0.0000;6.6654
117;-1.0368;-3.4593;0.0000;0.0000;0.0000;5.9633
118;-1.0391;-3.3166;0.0000;0.0000;0.0000;6.5499
119;-1.0413;-3.1740;0.0000;0.0000;0.0000;6.3968
120;-1.0436;-3.0314;0.0000;0.0000;0.0000;7.1973
121;-1.0458;-2.8889;0.0000;0.0000;0.0000;7.1247
122;-1.0481;-2.7464;0.0000;0.0000;0.0000;5.5223
123;-1.0504;-2.6038;0.0000;0.0000;0.0000;5.2213
124;-1.0526;-2.4612;0.0000;0.0000;0.0000;6.7415
125;-1.0549;-2.3185;0.0000;0.0000;0.0000;6.5223
126;-1.0572;-2.1759;0.0000;0.0000;0.0000;6.1080
127;-1.0594;-2.0334;0.0000;0.0000;0.0000;6.6877
128;-1.0616;-1.8908;0.0000;0.0000;0.0000;5.7804
129;-1.0639;-1.7482;0.0000;0.0000;0.0000;5.8850
130;-1.0662;-1.6056;0.0000;0.0000;0.0000;6.6177
131;-1.0685;-1.4630;0.0000;0.0000;0.0000;7.2905
132;-1.0708;-1.3204;0.0000;0.0000;0.0000;5.4033
133;-1.0730;-1.1778;0.0000;0.0000;0.0000;3.9983
134;-1.0752;-1.0353;0.0000;0.0000;0.0000;5.2983
135;-1.0776;-0.8927;0.0000;0.0000;0.0000;7.1470
136;-1.0798;-0.7499;0.0000;0.0000;0.0000;6.1619
137;-1.0820;-0.6072;0.0000;0.0000;0.0000;4.3198
138;-1.0842;-0.4645;0.0000;0.0000;0.0000;4.5989
139;-1.0865;-0.3218;0.0000;0.0000;0.0000;4.8898
140;-1.0889;-0.1791;0.0000;0.0000;0.0000;3.8395
141;-1.0910;-0.0364;0.0000;0.0000;0.0000;3.8583
142;-1.0931;0.1063;0.0000;0.0000;0.0000;4.6295
143;-1.0949;0.2497;0.0000;0.0000;0.0000;5.0446
144;-1.0963;0.3936;0.0000;0.0000;0.0000;5.7262
145;-1.0974;0.5380;0.0000;0.0000;0.0000;5.3548
146;-1.0978;0.6827;0.0000;0.0000;0.0000;5.8863
147;-1.0984;0.8274;0.0000;0.0000;0.0000;6.1080
148;-1.0989;0.9723;0.0000;0.0000;0.0000;5.1343
149;-1.0987;1.1176;0.0000;0.0000;0.0000;4.6610
150;-1.0985;1.2633;0.0000;0.0000;0.0000;4.9401
151;-1.0985;1.4088;0.0000;0.0000;0.0000;5.7423
152;-1.0982;1.5542;0.0000;0.0000;0.0000;4.9816
153;-1.0976;1.7000;0.0000;0.0000;0.0000;3.8670
154;-1.0972;1.8454;0.0000;0.0000;0.0000;5.2205
155;-1.0967;1.9907;0.0000;0.0000;0.0000;5.8758
156;-1.0963;2.1358;0.0000;0.0000;0.0000;5.7367
157;-1.0960;2.2808;0.0000;0.0000;0.0000;5.6667
158;-1.0959;2.4257;0.0000;0.0000;0.0000;5.7485
159;-1.0955;2.5708;0.0000;0.0000;0.0000;6.4217
160;-1.0952;2.7158;0.0000;0.0000;0.0000;7.3010
161;-1.0945;2.8610;0.0000;0.0000;0.0000;7.2030
162;-1.0941;3.0057;0.0000;0.0000;0.0000;6.2515
163;-1.0943;3.1498;0.0000;0.0000;0.0000;4.8250
164;-1.0956;3.2930;0.0000;0.0000;0.0000;2.9125
165;-1.0971;3.4359;0.0000;0.0000;0.0000;3.3036
166;-1.2406;9.9860;0.0000;0.0000;0.0000;4.6391
167;-1.0987;9.9862;0.0000;0.0000;0.0000;3.3994
168;-0.9571;9.9868;0.0000;0.0000;0.0000;4.4300
169;-0.8158;9.9872;0.0000;0.0000;0.0000;4.5459
170;-0.6741;9.9873;0.0000;0.0000;0.0000;3.9803
171;-0.5325;9.9876;0.0000;0.0000;0.0000;4.6242
172;-0.3909;9.9878;0.0000;0.0000;0.0000;4.4125
173;-0.2492;9.9882;0.0000;0.0000;0.0000;3.7537
174;-0.1075;9.9888;0.0000;0.0000;0.0000;4.3657
175;0.0339;9.9886;0.0000;0.0000;0.0000;4.4033
176;0.1755;9.9888;0.0000;0.0000;0.0000;4.4016
177;0.3171;9.9890;0.0000;0.0000;0.0000;4.4965
178;0.4588;9.9891;0.0000;0.0000;0.0000;4.0044
179;0.6003;9.9896;0.0000;0.0000;0.0000;4.0044
180;0.7418;9.9899;0.0000;0.0000;0.0000;3.8543
181;0.8834;9.9901;0.0000;0.0000;0.0000;3.3749
182;1.0251;9.9904;0.0000;0.0000;0.0000;3.5254
183;1.1667;9.9908;0.0000;0.0000;0.0000;4.3062
184;1.2842;9.9397;0.0000;0.0000;0.0000;4.2087
185;1.2856;9.7974;0.0000;0.0000;0.0000;4.6203
186;1.2870;9.6553;0.0000;0.0000;0.0000;4.2257
187;1.2886;9.5132;0.0000;0.0000;0.0000;4.0267
188;1.2900;9.3711;0.0000;0.0000;0.0000;4.4055
189;1.2915;9.2289;0.0000;0.0000;0.0000;4.1365
190;1.2930;9.0868;0.0000;0.0000;0.0000;4.0971
191;1.2945;8.9448;0.0000;0.0000;0.0000;4.0044
192;1.2960;8.8028;0.0000;0.0000;0.0000;4.3408
193;1.2974;8.6607;0.0000;0.0000;0.0000;4.4738
194;1.2989;8.5186;0.0000;0.0000;0.0000;3.8696
195;1.3005;8.3765;0.0000;0.0000;0.0000;4.4370
196;1.3019;8.2343;0.0000;0.0000;0.0000;5.2935
197;1.3033;8.0922;0.0000;0.0000;0.0000;4.8346
198;1.3048;7.9501;0.0000;0.0000;0.0000;5.2003
199;1.3063;7.8078;0.0000;0.0000;0.0000;5.1632
200;1.3078;7.6656;0.0000;0.0000;0.0000;4.4230
201;1.3092;7.5235;0.0000;0.0000;0.0000;4.3836
202;1.3106;7.3815;0.0000;0.0000;0.0000;4.8867
203;1.3121;7.2391;0.0000;0.0000;0.0000;4.7507
204;1.3137;7.0970;0.0000;0.0000;0.0000;4.4024
205;1.3152;6.9550;0.0000;0.0000;0.0000;4.2515
206;1.3166;6.8128;0.0000;0.0000;0.0000;4.2747
207;1.3180;6.6705;0.0000;0.0000;0.0000;4.6649
208;1.3194;6.5283;0.0000;0.0000;0.0000;4.2651
209;1.3208;6.3860;0.0000;0.0000;0.0000;4.9536
210;1.3222;6.2439;0.0000;0.0000;0.0000;5.4598
211;1.3237;6.1017;0.0000;0.0000;0.0000;5.3154
212;1.3252;5.9595;0.0000;0.0000;0.0000;4.8241
213;1.3266;5.8173;0.0000;0.0000;0.0000;4.3329
214;1.3279;5.6750;0.0000;0.0000;0.0000;4.3360
215;1.3288;5.5321;0.0000;0.0000;0.0000;4.0206
216;1.3291;5.3886;0.0000;0.0000;0.0000;5.1024
217;1.3057;5.2552;0.0000;0.0000;0.0000;5.3390
218;1.1820;5.2100;0.0000;0.0000;0.0000;4.7660
219;1.0419;5.2105;0.0000;0.0000;0.0000;5.3955
220;0.9010;5.2099;0.0000;0.0000;0.0000;6.5661
221;0.7596;5.2087;0.0000;0.0000;0.0000;5.7800
222;0.6181;5.2073;0.0000;0.0000;0.0000;5.2087
223;0.4765;5.2063;0.0000;0.0000;0.0000;4.7795
224;0.3349;5.2052;0.0000;0.0000;0.0000;4.4213
225;0.1934;5.2033;0.0000;0.0000;0.0000;4.7598
226;0.0521;5.2019;0.0000;0.0000;0.0000;4.8303
227;-0.0895;5.2009;0.0000;0.0000;0.0000;5.1938
228;-0.2314;5.1998;0.0000;0.0000;0.0000;5.5534
229;-0.3731;5.1988;0.0000;0.0000;0.0000;4.4304
230;-0.5149;5.1977;0.0000;0.0000;0.0000;4.5805
231;-0.6563;5.1964;0.0000;0.0000;0.0000;4.6382
232;-0.7977;5.1951;0.0000;0.0000;0.0000;5.2835
233;-0.9393;5.1936;0.0000;0.0000;0.0000;5.1916
234;-1.0789;5.2067;0.0000;0.0000;0.0000;5.0328
235;-1.1485;5.2976;0.0000;0.0000;0.0000;4.8928
236;-1.1516;5.4396;0.0000;0.0000;0.0000;4.7183
237;-1.1548;5.5817;0.0000;0.0000;0.0000;6.0157
238;-1.1580;5.7237;0.0000;0.0000;0.0000;6.1229
239;-1.1611;5.8658;0.0000;0.0000;0.0000;5.9156
240;-1.1642;6.0081;0.0000;0.0000;0.0000;4.6006
241;-1.1673;6.1502;0.0000;0.0000;0.0000;4.8596
242;-1.1705;6.2922;0.0000;0.0000;0.0000;6.9471
243;-1.1736;6.4343;0.0000;0.0000;0.0000;6.3268
244;-1.1768;6.5763;0.0000;0.0000;0.0000;6.0910
245;-1.1799;6.7184;0.0000;0.0000;0.0000;5.3640
246;-1.1830;6.8606;0.0000;0.0000;0.0000;5.5267
247;-1.1861;7.0026;0.0000;0.0000;0.0000;5.4143
248;-1.1893;7.1447;0.0000;0.0000;0.0000;5.7970
249;-1.1925;7.2869;0.0000;0.0000;0.0000;6.5665
250;-1.1957;7.4291;0.0000;0.0000;0.0000;6.7432
251;-1.1988;7.5711;0.0000;0.0000;0.0000;6.0052
252;-1.2018;7.7132;0.0000;0.0000;0.0000;5.4068
253;-1.2050;7.8552;0.0000;0.0000;0.0000;4.9541
254;-1.2081;7.9974;0.0000;0.0000;0.0000;5.6579
255;-1.2113;8.1396;0.0000;0.0000;0.0000;5.4790
256;-1.2145;8.2817;0.0000;0.0000;0.0000;6.0752
257;-1.2176;8.4238;0.0000;0.0000;0.0000;6.2467
258;-1.2207;8.5659;0.0000;0.0000;0.0000;6.2056
259;-1.2239;8.7079;0.0000;0.0000;0.0000;5.6627
260;-1.2269;8.8499;0.0000;0.0000;0.0000;5.2257
261;-1.2301;8.9919;0.0000;0.0000;0.0000;5.3066
262;-1.2333;9.1340;0.0000;0.0000;0.0000;4.8959
263;-1.2364;9.2762;0.0000;0.0000;0.0000;5.7406
264;-1.2395;9.4183;0.0000;0.0000;0.0000;6.5381
265;-1.2426;9.5604;0.0000;0.0000;0.0000;5.5906
266;-1.2458;9.7025;0.0000;0.0000;0.0000;5.9304
267;-1.2490;9.8445;0.0000;0.0000;0.0000;5.7948
268;-0.9405;-7.6817;0.0000;0.0000;0.0000;6.6299
269;-0.7981;-7.6825;0.0000;0.0000;0.0000;7.6846
270;-0.6557;-7.6833;0.0000;0.0000;0.0000;6.2283
271;-0.5133;-7.6841;0.0000;0.0000;0.0000;6.6671
272;-0.3709;-7.6848;0.0000;0.0000;0.0000;7.1076
273;-0.2285;-7.6856;0.0000;0.0000;0.0000;6.6737
274;-0.0862;-7.6864;0.0000;0.0000;0.0000;7.3311
275;0.0562;-7.6872;0.0000;0.0000;0.0000;7.4978
276;0.1987;-7.6880;0.0000;0.0000;0.0000;6.5901
277;0.3410;-7.6888;0.0000;0.0000;0.0000;6.9405
278;0.4833;-7.6896;0.0000;0.0000;0.0000;6.2240
279;0.6257;-7.6903;0.0000;0.0000;0.0000;6.3618
280;0.7682;-7.6911;0.0000;0.0000;0.0000;7.6107
281;0.9106;-7.6918;0.0000;0.0000;0.0000;7.1312
282;1.0530;-7.6926;0.0000;0.0000;0.0000;6.5726
283;1.1955;-7.6934;0.0000;0.0000;0.0000;6.0280
284;1.3379;-7.6942;0.0000;0.0000;0.0000;5.4073
285;1.4796;-7.6960;0.0000;0.0000;0.0000;6.1133
286;1.5255;-7.8267;0.0000;0.0000;0.0000;6.0551
287;1.5270;-7.9697;0.0000;0.0000;0.0000;5.1938
288;1.5285;-8.1126;0.0000;0.0000;0.0000;4.7178
289;1.5301;-8.2556;0.0000;0.0000;0.0000;5.5875
290;1.5317;-8.3986;0.0000;0.0000;0.0000;5.9768
291;1.5333;-8.5415;0.0000;0.0000;0.0000;4.4230
292;1.5348;-8.6845;0.0000;0.0000;0.0000;5.2362
293;1.5364;-8.8274;0.0000;0.0000;0.0000;5.3885
294;1.5380;-8.9703;0.0000;0.0000;0.0000;5.1365
295;1.5397;-9.1133;0.0000;0.0000;0.0000;5.6706
296;1.5412;-9.2563;0.0000;0.0000;0.0000;6.2502
297;1.5427;-9.3993;0.0000;0.0000;0.0000;6.5437
298;1.5443;-9.5423;0.0000;0.0000;0.0000;5.6824
299;1.5460;-9.6852;0.0000;0.0000;0.0000;5.5766
300;1.5475;-9.8282;0.0000;0.0000;0.0000;6.0774
301;1.5491;-9.9713;0.0000;0.0000;0.0000;5.3495
302;1.5507;-10.1141;0.0000;0.0000;0.0000;5.1601
303;1.5523;-10.2571;0.0000;0.0000;0.0000;5.7861
304;1.5539;-10.4002;0.0000;0.0000;0.0000;5.9103
305;1.5555;-10.5431;0.0000;0.0000;0.0000;5.9081
306;1.5570;-10.6861;0.0000;0.0000;0.0000;5.9759
307;1.5586;-10.8291;0.0000;0.0000;0.0000;6.2948
308;1.5602;-10.9721;0.0000;0.0000;0.0000;5.2817
309;1.5618;-11.1150;0.0000;0.0000;0.0000;5.3473
310;1.5634;-11.2580;0.0000;0.0000;0.0000;5.8224
311;1.5649;-11.4010;0.0000;0.0000;0.0000;4.9243
312;1.5664;-11.5440;0.0000;0.0000;0.0000;4.6741
313;1.5680;-11.6869;0.0000;0.0000;0.0000;4.7581
314;1.5696;-11.8299;0.0000;0.0000;0.0000;5.4217
315;1.5712;-11.9730;0.0000;0.0000;0.0000;6.0131
316;1.5728;-12.1160;0.0000;0.0000;0.0000;4.2848
317;1.5744;-12.2589;0.0000;0.0000;0.0000;3.4891
318;1.5760;-12.4018;0.0000;0.0000;0.0000;5.8036
319;1.5776;-12.5449;0.0000;0.0000;0.0000;5.4987
320;1.5791;-12.6880;0.0000;0.0000;0.0000;4.6728
321;1.5807;-12.8309;0.0000;0.0000;0.0000;5.7467
322;1.5823;-12.9739;0.0000;0.0000;0.0000;5.6575
323;1.5839;-13.1169;0.0000;0.0000;0.0000;5.2349
324;1.5853;-13.2597;0.0000;0.0000;0.0000;4.3640
325;1.5870;-13.4026;0.0000;0.0000;0.0000;5.0879
326;1.5886;-13.5458;0.0000;0.0000;0.0000;4.9309
327;1.5902;-13.6887;0.0000;0.0000;0.0000;4.8058
328;1.5917;-13.8317;0.0000;0.0000;0.0000;5.2983
329;1.5932;-13.9748;0.0000;0.0000;0.0000;5.4891
330;1.5948;-14.1177;0.0000;0.0000;0.0000;3.9178
331;1.5965;-14.2608;0.0000;0.0000;0.0000;3.1325
351;-0.9198;-14.2573;0.0000;0.0000;0.0000;6.0862
352;-0.9204;-14.1144;0.0000;0.0000;0.0000;6.3451
353;-0.9210;-13.9715;0.0000;0.0000;0.0000;6.4199
354;-0.9216;-13.8284;0.0000;0.0000;0.0000;6.5709
355;-0.9221;-13.6855;0.0000;0.0000;0.0000;6.3290
356;-0.9228;-13.5426;0.0000;0.0000;0.0000;6.5472
357;-0.9233;-13.3995;0.0000;0.0000;0.0000;7.2695
358;-0.9239;-13.2565;0.0000;0.0000;0.0000;6.7839
359;-0.9244;-13.1135;0.0000;0.0000;0.0000;6.8263
360;-0.9249;-12.9706;0.0000;0.0000;0.0000;7.0853
361;-0.9255;-12.8276;0.0000;0.0000;0.0000;7.2170
362;-0.9262;-12.6845;0.0000;0.0000;0.0000;7.4296
363;-0.9268;-12.5415;0.0000;0.0000;0.0000;6.3688
364;-0.9273;-12.3985;0.0000;0.0000;0.0000;5.8640
365;-0.9279;-12.2554;0.0000;0.0000;0.0000;6.0245
366;-0.9286;-12.1124;0.0000;0.0000;0.0000;5.3517
367;-0.9291;-11.9695;0.0000;0.0000;0.0000;4.3386
368;-0.9296;-11.8264;0.0000;0.0000;0.0000;4.4108
369;-0.9302;-11.6833;0.0000;0.0000;0.0000;5.1592
370;-0.9309;-11.5405;0.0000;0.0000;0.0000;6.3325
371;-0.9314;-11.3976;0.0000;0.0000;0.0000;6.9860
372;-0.9319;-11.2546;0.0000;0.0000;0.0000;6.5031
373;-0.9325;-11.1116;0.0000;0.0000;0.0000;6.3399
374;-0.9331;-10.9686;0.0000;0.0000;0.0000;5.8696
375;-0.9337;-10.8256;0.0000;0.0000;0.0000;6.0682
376;-0.9343;-10.6826;0.0000;0.0000;0.0000;6.2773
377;-0.9349;-10.5397;0.0000;0.0000;0.0000;5.6829
378;-0.9354;-10.3966;0.0000;0.0000;0.0000;6.3342
379;-0.9359;-10.2537;0.0000;0.0000;0.0000;7.2695
380;-0.9365;-10.1107;0.0000;0.0000;0.0000;5.9624
381;-0.9371;-9.9677;0.0000;0.0000;0.0000;5.7970
382;-0.9376;-9.8248;0.0000;0.0000;0.0000;6.9217
383;-0.9381;-9.6818;0.0000;0.0000;0.0000;7.3937
384;-0.9387;-9.5388;0.0000;0.0000;0.0000;7.5779
385;-0.9393;-9.3958;0.0000;0.0000;0.0000;7.9108
386;-0.9399;-9.2529;0.0000;0.0000;0.0000;7.2292
387;-0.9405;-9.1100;0.0000;0.0000;0.0000;6.9781
388;-0.9411;-8.9670;0.0000;0.0000;0.0000;6.5857
389;-0.9416;-8.8240;0.0000;0.0000;0.0000;6.8736
390;-0.9421;-8.6811;0.0000;0.0000;0.0000;6.5932
391;-0.9427;-8.5381;0.0000;0.0000;0.0000;6.2507
392;-0.9433;-8.3952;0.0000;0.0000;0.0000;6.5801
393;-0.9439;-8.2521;0.0000;0.0000;0.0000;6.6496
394;-0.9445;-8.1092;0.0000;0.0000;0.0000;7.3985
395;-0.9451;-7.9662;0.0000;0.0000;0.0000;7.5219
396;-0.9456;-7.8233;0.0000;0.0000;0.0000;7.0017
397;-1.1406;9.8817;0.0000;0.0000;0.0000;4.7130
398;-1.0188;9.8676;0.0000;0.0000;0.0000;4.1413
399;-0.8846;9.8670;0.0000;0.0000;0.0000;5.2353
400;-0.7457;9.8672;0.0000;0.0000;0.0000;4.9388
401;-0.6051;9.8674;0.0000;0.0000;0.0000;4.8959
402;-0.4638;9.8676;0.0000;0.0000;0.0000;5.3272
403;-0.3221;9.8678;0.0000;0.0000;0.0000;4.8714
404;-0.1804;9.8680;0.0000;0.0000;0.0000;4.3955
405;-0.0387;9.8682;0.0000;0.0000;0.0000;3.9261
406;0.1030;9.8684;0.0000;0.0000;0.0000;4.0875
407;0.2448;9.8687;0.0000;0.0000;0.0000;4.9431
408;0.3866;9.8689;0.0000;0.0000;0.0000;4.1706
409;0.5282;9.8693;0.0000;0.0000;0.0000;4.1304
410;0.6695;9.8696;0.0000;0.0000;0.0000;4.4081
411;0.8100;9.8698;0.0000;0.0000;0.0000;4.1072
412;0.9477;9.8703;0.0000;0.0000;0.0000;3.6251
413;1.0789;9.8694;0.0000;0.0000;0.0000;4.1470
414;1.1926;9.8638;0.0000;0.0000;0.0000;4.5669
415;-1.1051;9.7534;0.0000;0.0000;0.0000;5.1247
416;-0.9595;9.7468;0.0000;0.0000;0.0000;4.9458
417;-0.8180;9.7464;0.0000;0.0000;0.0000;4.7791
418;-0.6771;9.7466;0.0000;0.0000;0.0000;5.3001
419;-0.5358;9.7468;0.0000;0.0000;0.0000;5.4742
420;-0.3941;9.7470;0.0000;0.0000;0.0000;5.1697
421;-0.2524;9.7471;0.0000;0.0000;0.0000;4.9396
422;-0.1107;9.7473;0.0000;0.0000;0.0000;4.2887
423;0.0311;9.7475;0.0000;0.0000;0.0000;4.0604
424;0.1730;9.7478;0.0000;0.0000;0.0000;4.5341
425;0.3149;9.7481;0.0000;0.0000;0.0000;4.8806
426;0.4567;9.7483;0.0000;0.0000;0.0000;5.0910
427;0.5984;9.7484;0.0000;0.0000;0.0000;4.7752
428;0.7394;9.7486;0.0000;0.0000;0.0000;4.9921
429;0.8790;9.7489;0.0000;0.0000;0.0000;5.0534
430;1.0163;9.7485;0.0000;0.0000;0.0000;4.7467
431;1.1538;9.7420;0.0000;0.0000;0.0000;4.5770
432;-1.1431;9.6263;0.0000;0.0000;0.0000;4.9418
433;-1.0227;9.6267;0.0000;0.0000;0.0000;4.5770
434;-0.8868;9.6253;0.0000;0.0000;0.0000;5.5044
435;-0.7474;9.6252;0.0000;0.0000;0.0000;5.9873
436;-0.6067;9.6253;0.0000;0.0000;0.0000;5.9510
437;-0.4654;9.6254;0.0000;0.0000;0.0000;5.6531
438;-0.3237;9.6257;0.0000;0.0000;0.0000;5.3211
439;-0.1819;9.6259;0.0000;0.0000;0.0000;4.4392
440;-0.0401;9.6261;0.0000;0.0000;0.0000;4.4843
441;0.1018;9.6262;0.0000;0.0000;0.0000;3.6881
442;0.2437;9.6265;0.0000;0.0000;0.0000;4.0346
443;0.3857;9.6268;0.0000;0.0000;0.0000;5.1312
444;0.5273;9.6269;0.0000;0.0000;0.0000;4.6557
445;0.6686;9.6268;0.0000;0.0000;0.0000;4.6750
446;0.8084;9.6270;0.0000;0.0000;0.0000;5.1172
447;0.9445;9.6269;0.0000;0.0000;0.0000;4.9563
448;1.0730;9.6245;0.0000;0.0000;0.0000;4.2804
449;1.1874;9.6128;0.0000;0.0000;0.0000;4.0599
450;-1.1028;9.5006;0.0000;0.0000;0.0000;5.2108
451;-0.9590;9.5038;0.0000;0.0000;0.0000;5.1417
452;-0.8181;9.5034;0.0000;0.0000;0.0000;5.2559
453;-0.6773;9.5032;0.0000;0.0000;0.0000;4.8618
454;-0.5361;9.5033;0.0000;0.0000;0.0000;5.4313
455;-0.3945;9.5034;0.0000;0.0000;0.0000;5.8093
456;-0.2528;9.5036;0.0000;0.0000;0.0000;5.3399
457;-0.1109;9.5039;0.0000;0.0000;0.0000;5.7887
458;0.0309;9.5040;0.0000;0.0000;0.0000;4.8968
459;0.1727;9.5041;0.0000;0.0000;0.0000;4.6798
460;0.3147;9.5044;0.0000;0.0000;0.0000;4.6789
461;0.4565;9.5046;0.0000;0.0000;0.0000;5.4143
462;0.5980;9.5047;0.0000;0.0000;0.0000;5.6697
463;0.7389;9.5045;0.0000;0.0000;0.0000;5.0499
464;0.8777;9.5044;0.0000;0.0000;0.0000;5.0337
465;1.0131;9.5032;0.0000;0.0000;0.0000;4.5477
466;1.1468;9.4976;0.0000;0.0000;0.0000;4.2778
467;-1.1355;9.3712;0.0000;0.0000;0.0000;5.4961
468;-1.0165;9.3805;0.0000;0.0000;0.0000;6.6404
469;-0.8841;9.3810;0.0000;0.0000;0.0000;6.0398
470;-0.7463;9.3807;0.0000;0.0000;0.0000;4.9431
471;-0.6061;9.3807;0.0000;0.0000;0.0000;4.5945
472;-0.4651;9.3807;0.0000;0.0000;0.0000;5.5061
473;-0.3235;9.3809;0.0000;0.0000;0.0000;5.6527
474;-0.1817;9.3811;0.0000;0.0000;0.0000;6.2445
475;-0.0399;9.3813;0.0000;0.0000;0.0000;5.8075
476;0.1019;9.3815;0.0000;0.0000;0.0000;5.4558
477;0.2438;9.3817;0.0000;0.0000;0.0000;5.4746
478;0.3858;9.3819;0.0000;0.0000;0.0000;5.4768
479;0.5275;9.3819;0.0000;0.0000;0.0000;5.5674
480;0.6687;9.3820;0.0000;0.0000;0.0000;6.1290
481;0.8086;9.3818;0.0000;0.0000;0.0000;5.6938
482;0.9453;9.3812;0.0000;0.0000;0.0000;5.0617
483;1.0765;9.3798;0.0000;0.0000;0.0000;5.2699
484;1.2019;9.3755;0.0000;0.0000;0.0000;4.8950
485;-1.0902;9.2545;0.0000;0.0000;0.0000;5.4921
486;-0.9531;9.2574;0.0000;0.0000;0.0000;6.7069
487;-0.8156;9.2577;0.0000;0.0000;0.0000;6.3062
488;-0.6761;9.2577;0.0000;0.0000;0.0000;5.1715
489;-0.5355;9.2578;0.0000;0.0000;0.0000;5.0376
490;-0.3941;9.2578;0.0000;0.0000;0.0000;5.0801
491;-0.2525;9.2580;0.0000;0.0000;0.0000;4.5048
492;-0.1107;9.2582;0.0000;0.0000;0.0000;5.6794
493;0.0312;9.2584;0.0000;0.0000;0.0000;6.1019
494;0.1731;9.2586;0.0000;0.0000;0.0000;5.6321
495;0.3149;9.2588;0.0000;0.0000;0.0000;4.7559
496;0.4568;9.2589;0.0000;0.0000;0.0000;4.3320
497;0.5984;9.2590;0.0000;0.0000;0.0000;4.6802
498;0.7392;9.2588;0.0000;0.0000;0.0000;4.9738
499;0.8783;9.2584;0.0000;0.0000;0.0000;4.8570
500;1.0144;9.2579;0.0000;0.0000;0.0000;5.1225
501;1.1491;9.2586;0.0000;0.0000;0.0000;5.0284
502;-1.1436;9.1349;0.0000;0.0000;0.0000;4.9834
503;-1.0160;9.1348;0.0000;0.0000;0.0000;6.0433
504;-0.8827;9.1344;0.0000;0.0000;0.0000;6.0223
505;-0.7453;9.1345;0.0000;0.0000;0.0000;5.5302
506;-0.6056;9.1346;0.0000;0.0000;0.0000;5.2117
507;-0.4646;9.1347;0.0000;0.0000;0.0000;5.3486
508;-0.3232;9.1348;0.0000;0.0000;0.0000;5.3268
509;-0.1815;9.1350;0.0000;0.0000;0.0000;5.6509
510;-0.0396;9.1352;0.0000;0.0000;0.0000;5.8486
511;0.1023;9.1353;0.0000;0.0000;0.0000;5.7852
512;0.2442;9.1355;0.0000;0.0000;0.0000;5.7205
513;0.3861;9.1357;0.0000;0.0000;0.0000;3.8898
514;0.5277;9.1358;0.0000;0.0000;0.0000;3.9431
515;0.6691;9.1357;0.0000;0.0000;0.0000;4.8403
516;0.8091;9.1354;0.0000;0.0000;0.0000;5.1846
517;0.9461;9.1346;0.0000;0.0000;0.0000;5.5595
518;1.0763;9.1343;0.0000;0.0000;0.0000;5.2717
519;1.1925;9.1402;0.0000;0.0000;0.0000;4.5416
520;-1.0867;9.0151;0.0000;0.0000;0.0000;4.9374
521;-0.9510;9.0115;0.0000;0.0000;0.0000;5.5026
522;-0.8143;9.0110;0.0000;0.0000;0.0000;5.6072
523;-0.6754;9.0111;0.0000;0.0000;0.0000;5.7861
524;-0.5349;9.0114;0.0000;0.0000;0.0000;5.9339
525;-0.3937;9.0115;0.0000;0.0000;0.0000;6.0402
526;-0.2522;9.0117;0.0000;0.0000;0.0000;5.6947
527;-0.1104;9.0119;0.0000;0.0000;0.0000;5.5087
528;0.0315;9.0120;0.0000;0.0000;0.0000;6.0354
529;0.1734;9.0122;0.0000;0.0000;0.0000;6.3850
530;0.3153;9.0123;0.0000;0.0000;0.0000;5.3290
531;0.4572;9.0125;0.0000;0.0000;0.0000;4.5871
532;0.5988;9.0126;0.0000;0.0000;0.0000;5.2222
533;0.7400;9.0125;0.0000;0.0000;0.0000;5.5774
534;0.8801;9.0120;0.0000;0.0000;0.0000;5.4024
535;1.0192;9.0114;0.0000;0.0000;0.0000;4.8815
536;1.1601;9.0126;0.0000;0.0000;0.0000;4.2450
537;-1.1274;8.8976;0.0000;0.0000;0.0000;4.5162
538;-1.0111;8.8887;0.0000;0.0000;0.0000;5.0044
539;-0.8809;8.8872;0.0000;0.0000;0.0000;4.0805
540;-0.7446;8.8874;0.0000;0.0000;0.0000;3.7673
541;-0.6051;8.8878;0.0000;0.0000;0.0000;4.4388
542;-0.4642;8.8881;0.0000;0.0000;0.0000;6.0114
543;-0.3227;8.8883;0.0000;0.0000;0.0000;5.9724
544;-0.1811;8.8884;0.0000;0.0000;0.0000;5.5013
545;-0.0393;8.8886;0.0000;0.0000;0.0000;5.8653
546;0.1027;8.8888;0.0000;0.0000;0.0000;5.8565
547;0.2445;8.8890;0.0000;0.0000;0.0000;4.8657
548;0.3864;8.8891;0.0000;0.0000;0.0000;3.8653
549;0.5281;8.8892;0.0000;0.0000;0.0000;4.6479
550;0.6695;8.8893;0.0000;0.0000;0.0000;5.6789
551;0.8100;8.8892;0.0000;0.0000;0.0000;5.0149
552;0.9478;8.8890;0.0000;0.0000;0.0000;4.8171
553;1.0800;8.8876;0.0000;0.0000;0.0000;4.1794
554;1.1960;8.8861;0.0000;0.0000;0.0000;4.0814
555;-1.0921;8.7682;0.0000;0.0000;0.0000;4.6430
556;-0.9528;8.7642;0.0000;0.0000;0.0000;4.1509
557;-0.8147;8.7641;0.0000;0.0000;0.0000;3.1759
558;-0.6754;8.7645;0.0000;0.0000;0.0000;2.8937
559;-0.5348;8.7647;0.0000;0.0000;0.0000;4.9300
560;-0.3934;8.7649;0.0000;0.0000;0.0000;6.3985
561;-0.2517;8.7650;0.0000;0.0000;0.0000;5.7082
562;-0.1100;8.7652;0.0000;0.0000;0.0000;5.4641
563;0.0319;8.7654;0.0000;0.0000;0.0000;5.5656
564;0.1738;8.7656;0.0000;0.0000;0.0000;4.7948
565;0.3156;8.7657;0.0000;0.0000;0.0000;4.8828
566;0.4574;8.7658;0.0000;0.0000;0.0000;4.6907
567;0.5990;8.7660;0.0000;0.0000;0.0000;4.6269
568;0.7402;8.7660;0.0000;0.0000;0.0000;5.7288
569;0.8802;8.7661;0.0000;0.0000;0.0000;5.1745
570;1.0189;8.7656;0.0000;0.0000;0.0000;5.3486
571;1.1597;8.7585;0.0000;0.0000;0.0000;4.7428
572;-1.1283;8.6429;0.0000;0.0000;0.0000;5.0048
573;-1.0127;8.6410;0.0000;0.0000;0.0000;5.2380
574;-0.8813;8.6410;0.0000;0.0000;0.0000;4.6448
575;-0.7444;8.6411;0.0000;0.0000;0.0000;4.4987
576;-0.6049;8.6413;0.0000;0.0000;0.0000;4.8692
577;-0.4639;8.6415;0.0000;0.0000;0.0000;5.8570
578;-0.3224;8.6416;0.0000;0.0000;0.0000;5.6019
579;-0.1807;8.6418;0.0000;0.0000;0.0000;5.5087
580;-0.0390;8.6420;0.0000;0.0000;0.0000;5.4418
581;0.1029;8.6421;0.0000;0.0000;0.0000;4.8325
582;0.2448;8.6423;0.0000;0.0000;0.0000;4.6444
583;0.3866;8.6425;0.0000;0.0000;0.0000;3.7585
584;0.5284;8.6426;0.0000;0.0000;0.0000;4.1045
585;0.6698;8.6427;0.0000;0.0000;0.0000;4.9217
586;0.8098;8.6428;0.0000;0.0000;0.0000;4.6417
587;0.9464;8.6428;0.0000;0.0000;0.0000;4.9248
588;1.0763;8.6420;0.0000;0.0000;0.0000;4.4086
589;1.1941;8.6260;0.0000;0.0000;0.0000;4.5678
590;-1.0892;8.5141;0.0000;0.0000;0.0000;5.9116
591;-0.9512;8.5177;0.0000;0.0000;0.0000;6.0241
592;-0.8137;8.5179;0.0000;0.0000;0.0000;5.2082
593;-0.6747;8.5179;0.0000;0.0000;0.0000;4.8644
594;-0.5343;8.5180;0.0000;0.0000;0.0000;4.5643
595;-0.3930;8.5182;0.0000;0.0000;0.0000;4.7200
596;-0.2514;8.5184;0.0000;0.0000;0.0000;5.7979
597;-0.1096;8.5186;0.0000;0.0000;0.0000;5.4300
598;0.0322;8.5187;0.0000;0.0000;0.0000;5.0192
599;0.1740;8.5190;0.0000;0.0000;0.0000;5.8876
600;0.3159;8.5192;0.0000;0.0000;0.0000;5.9392
601;0.4577;8.5193;0.0000;0.0000;0.0000;5.5446
602;0.5995;8.5193;0.0000;0.0000;0.0000;4.8316
603;0.7403;8.5193;0.0000;0.0000;0.0000;4.4274
604;0.8793;8.5191;0.0000;0.0000;0.0000;4.4742
605;1.0147;8.5188;0.0000;0.0000;0.0000;4.5901
606;1.1477;8.5185;0.0000;0.0000;0.0000;4.4318
607;-1.1189;8.3832;0.0000;0.0000;0.0000;5.6632
608;-1.0062;8.3932;0.0000;0.0000;0.0000;5.2262
609;-0.8781;8.3945;0.0000;0.0000;0.0000;5.4891
610;-0.7428;8.3945;0.0000;0.0000;0.0000;5.3185
611;-0.6040;8.3946;0.0000;0.0000;0.0000;4.5757
612;-0.4635;8.3948;0.0000;0.0000;0.0000;4.0127
613;-0.3220;8.3950;0.0000;0.0000;0.0000;4.8723
614;-0.1803;8.3952;0.0000;0.0000;0.0000;6.0477
615;-0.0386;8.3954;0.0000;0.0000;0.0000;6.0582
616;0.1032;8.3955;0.0000;0.0000;0.0000;6.2563
617;0.2452;8.3957;0.0000;0.0000;0.0000;6.4878
618;0.3870;8.3960;0.0000;0.0000;0.0000;6.4943
619;0.5289;8.3960;0.0000;0.0000;0.0000;6.3241
620;0.6702;8.3960;0.0000;0.0000;0.0000;5.3220
621;0.8101;8.3957;0.0000;0.0000;0.0000;4.5267
622;0.9469;8.3950;0.0000;0.0000;0.0000;4.9073
623;1.0772;8.3954;0.0000;0.0000;0.0000;4.8893
624;1.1958;8.4119;0.0000;0.0000;0.0000;4.6251
625;-1.0769;8.2660;0.0000;0.0000;0.0000;5.0989
626;-0.9452;8.2703;0.0000;0.0000;0.0000;5.3578
627;-0.8110;8.2709;0.0000;0.0000;0.0000;4.6680
628;-0.6735;8.2711;0.0000;0.0000;0.0000;4.9724
629;-0.5336;8.2714;0.0000;0.0000;0.0000;4.2677
630;-0.3926;8.2716;0.0000;0.0000;0.0000;4.6413
631;-0.2510;8.2717;0.0000;0.0000;0.0000;5.5284
632;-0.1093;8.2720;0.0000;0.0000;0.0000;5.8150
633;0.0325;8.2722;0.0000;0.0000;0.0000;5.8723
634;0.1744;8.2723;0.0000;0.0000;0.0000;5.8241
635;0.3163;8.2725;0.0000;0.0000;0.0000;6.2629
636;0.4581;8.2727;0.0000;0.0000;0.0000;6.2979
637;0.5998;8.2727;0.0000;0.0000;0.0000;5.4208
638;0.7410;8.2726;0.0000;0.0000;0.0000;5.3088
639;0.8813;8.2721;0.0000;0.0000;0.0000;5.4641
640;1.0208;8.2720;0.0000;0.0000;0.0000;5.3850
641;1.1631;8.2799;0.0000;0.0000;0.0000;4.9453
642;-1.1272;8.1441;0.0000;0.0000;0.0000;5.7362
643;-1.0055;8.1471;0.0000;0.0000;0.0000;5.3281
644;-0.8767;8.1472;0.0000;0.0000;0.0000;5.0901
645;-0.7419;8.1474;0.0000;0.0000;0.0000;5.2266
646;-0.6034;8.1478;0.0000;0.0000;0.0000;5.7402
647;-0.4630;8.1481;0.0000;0.0000;0.0000;4.7432
648;-0.3217;8.1483;0.0000;0.0000;0.0000;4.3027
649;-0.1800;8.1486;0.0000;0.0000;0.0000;5.2323
650;-0.0382;8.1487;0.0000;0.0000;0.0000;6.2200
651;0.1036;8.1489;0.0000;0.0000;0.0000;6.1409
652;0.2455;8.1491;0.0000;0.0000;0.0000;5.3784
653;0.3874;8.1492;0.0000;0.0000;0.0000;6.1448
654;0.5292;8.1493;0.0000;0.0000;0.0000;4.9891
655;0.6707;8.1493;0.0000;0.0000;0.0000;4.1732
656;0.8113;8.1492;0.0000;0.0000;0.0000;5.1199
657;0.9501;8.1490;0.0000;0.0000;0.0000;5.7804
658;1.0842;8.1506;0.0000;0.0000;0.0000;5.6282
659;1.2022;8.1525;0.0000;0.0000;0.0000;4.9764
660;-1.0729;8.0278;0.0000;0.0000;0.0000;4.9633
661;-0.9430;8.0238;0.0000;0.0000;0.0000;4.9541
662;-0.8101;8.0233;0.0000;0.0000;0.0000;5.6400
663;-0.6730;8.0240;0.0000;0.0000;0.0000;6.2752
664;-0.5333;8.0244;0.0000;0.0000;0.0000;5.3088
665;-0.3923;8.0247;0.0000;0.0000;0.0000;5.0354
666;-0.2508;8.0251;0.0000;0.0000;0.0000;5.5219
667;-0.1090;8.0253;0.0000;0.0000;0.0000;5.3653
668;0.0328;8.0254;0.0000;0.0000;0.0000;5.8727
669;0.1747;8.0255;0.0000;0.0000;0.0000;5.7848
670;0.3166;8.0258;0.0000;0.0000;0.0000;5.1964
671;0.4584;8.0260;0.0000;0.0000;0.0000;5.2183
672;0.6002;8.0261;0.0000;0.0000;0.0000;5.5560
673;0.7417;8.0260;0.0000;0.0000;0.0000;5.8705
674;0.8826;8.0261;0.0000;0.0000;0.0000;5.8106
675;1.0233;8.0266;0.0000;0.0000;0.0000;4.6155
676;1.1665;8.0253;0.0000;0.0000;0.0000;4.6697
677;-1.1176;7.9149;0.0000;0.0000;0.0000;4.3005
678;-1.0032;7.9012;0.0000;0.0000;0.0000;4.9436
679;-0.8771;7.8981;0.0000;0.0000;0.0000;4.4143
680;-0.7423;7.8997;0.0000;0.0000;0.0000;5.1662
681;-0.6034;7.9007;0.0000;0.0000;0.0000;5.9698
682;-0.4628;7.9012;0.0000;0.0000;0.0000;5.4243
683;-0.3215;7.9016;0.0000;0.0000;0.0000;5.8119
684;-0.1798;7.9019;0.0000;0.0000;0.0000;5.4147
685;-0.0380;7.9021;0.0000;0.0000;0.0000;5.6028
686;0.1039;7.9021;0.0000;0.0000;0.0000;5.8543
687;0.2458;7.9022;0.0000;0.0000;0.0000;4.8421
688;0.3877;7.9024;0.0000;0.0000;0.0000;4.8793
689;0.5296;7.9026;0.0000;0.0000;0.0000;5.3053
690;0.6711;7.9027;0.0000;0.0000;0.0000;5.1387
691;0.8117;7.9027;0.0000;0.0000;0.0000;5.2078
692;0.9500;7.9030;0.0000;0.0000;0.0000;4.4961
693;1.0825;7.9033;0.0000;0.0000;0.0000;4.3211
694;1.2019;7.8967;0.0000;0.0000;0.0000;4.6378
695;-1.0866;7.7856;0.0000;0.0000;0.0000;4.7983
696;-0.9546;7.7721;0.0000;0.0000;0.0000;4.5577
697;-0.8154;7.7748;0.0000;0.0000;0.0000;5.0919
698;-0.6750;7.7767;0.0000;0.0000;0.0000;5.9051
699;-0.5338;7.7776;0.0000;0.0000;0.0000;6.1588
700;-0.3923;7.7780;0.0000;0.0000;0.0000;5.9755
701;-0.2506;7.7783;0.0000;0.0000;0.0000;5.7003
702;-0.1087;7.7785;0.0000;0.0000;0.0000;5.4081
703;0.0331;7.7787;0.0000;0.0000;0.0000;5.7887
704;0.1750;7.7789;0.0000;0.0000;0.0000;6.1640
705;0.3169;7.7790;0.0000;0.0000;0.0000;5.6837
706;0.4587;7.7792;0.0000;0.0000;0.0000;4.5398
707;0.6005;7.7793;0.0000;0.0000;0.0000;4.7927
708;0.7419;7.7793;0.0000;0.0000;0.0000;5.1225
709;0.8821;7.7794;0.0000;0.0000;0.0000;4.7528
710;1.0204;7.7794;0.0000;0.0000;0.0000;3.9843
711;1.1586;7.7786;0.0000;0.0000;0.0000;4.4379
712;-1.0498;7.6519;0.0000;0.0000;0.0000;5.3521
713;-0.8944;7.6525;0.0000;0.0000;0.0000;4.6544
714;-0.7484;7.6534;0.0000;0.0000;0.0000;5.9195
715;-0.6055;7.6542;0.0000;0.0000;0.0000;6.2948
716;-0.4634;7.6546;0.0000;0.0000;0.0000;6.0954
717;-0.3214;7.6549;0.0000;0.0000;0.0000;6.1737
718;-0.1795;7.6551;0.0000;0.0000;0.0000;5.7712
719;-0.0376;7.6553;0.0000;0.0000;0.0000;6.3010
720;0.1042;7.6554;0.0000;0.0000;0.0000;5.8500
721;0.2461;7.6556;0.0000;0.0000;0.0000;5.5639
722;0.3879;7.6558;0.0000;0.0000;0.0000;4.9711
723;0.5297;7.6559;0.0000;0.0000;0.0000;5.0647
724;0.6713;7.6560;0.0000;0.0000;0.0000;5.0556
725;0.8121;7.6561;0.0000;0.0000;0.0000;5.1439
726;0.9507;7.6562;0.0000;0.0000;0.0000;5.2345
727;1.0855;7.6572;0.0000;0.0000;0.0000;4.5171
728;1.2157;7.6613;0.0000;0.0000;0.0000;4.6452
729;-1.0860;7.5202;0.0000;0.0000;0.0000;4.8399
730;-0.9579;7.5313;0.0000;0.0000;0.0000;3.9217
731;-0.8178;7.5311;0.0000;0.0000;0.0000;3.6916
732;-0.6761;7.5311;0.0000;0.0000;0.0000;4.7590
733;-0.5342;7.5313;0.0000;0.0000;0.0000;5.5302
734;-0.3923;7.5315;0.0000;0.0000;0.0000;6.2174
735;-0.2504;7.5317;0.0000;0.0000;0.0000;5.4514
736;-0.1085;7.5319;0.0000;0.0000;0.0000;6.3473
737;0.0334;7.5320;0.0000;0.0000;0.0000;5.9138
738;0.1753;7.5322;0.0000;0.0000;0.0000;5.0424
739;0.3172;7.5325;0.0000;0.0000;0.0000;5.6330
740;0.4590;7.5326;0.0000;0.0000;0.0000;5.5451
741;0.6007;7.5326;0.0000;0.0000;0.0000;5.5643
742;0.7420;7.5327;0.0000;0.0000;0.0000;5.0389
743;0.8823;7.5327;0.0000;0.0000;0.0000;5.2095
744;1.0208;7.5334;0.0000;0.0000;0.0000;4.8066
745;1.1595;7.5391;0.0000;0.0000;0.0000;4.0713
746;-1.0356;7.4049;0.0000;0.0000;0.0000;4.6610
747;-0.8901;7.4080;0.0000;0.0000;0.0000;4.0783
748;-0.7472;7.4079;0.0000;0.0000;0.0000;2.8403
749;-0.6049;7.4080;0.0000;0.0000;0.0000;3.5709
750;-0.4631;7.4082;0.0000;0.0000;0.0000;5.8049
751;-0.3212;7.4083;0.0000;0.0000;0.0000;4.9904
752;-0.1794;7.4085;0.0000;0.0000;0.0000;4.7752
753;-0.0374;7.4085;0.0000;0.0000;0.0000;4.1470
754;0.1046;7.4087;0.0000;0.0000;0.0000;4.8587
755;0.2464;7.4090;0.0000;0.0000;0.0000;5.9304
756;0.3882;7.4091;0.0000;0.0000;0.0000;5.9444
757;0.5301;7.4092;0.0000;0.0000;0.0000;6.2270
758;0.6716;7.4092;0.0000;0.0000;0.0000;5.0044
759;0.8122;7.4091;0.0000;0.0000;0.0000;5.0166
760;0.9507;7.4090;0.0000;0.0000;0.0000;5.1544
761;1.0841;7.4111;0.0000;0.0000;0.0000;4.5241
762;1.2041;7.4243;0.0000;0.0000;0.0000;3.9081
763;-1.0949;7.2865;0.0000;0.0000;0.0000;5.6220
764;-0.9570;7.2854;0.0000;0.0000;0.0000;5.1492
765;-0.8167;7.2850;0.0000;0.0000;0.0000;3.1369
766;-0.6751;7.2841;0.0000;0.0000;0.0000;2.6317
767;-0.5337;7.2848;0.0000;0.0000;0.0000;4.4331
768;-0.3920;7.2849;0.0000;0.0000;0.0000;4.7616
769;-0.2501;7.2850;0.0000;0.0000;0.0000;4.7865
770;-0.1082;7.2852;0.0000;0.0000;0.0000;4.6794
771;0.0338;7.2853;0.0000;0.0000;0.0000;4.4226
772;0.1756;7.2854;0.0000;0.0000;0.0000;5.0302
773;0.3175;7.2856;0.0000;0.0000;0.0000;5.5993
774;0.4594;7.2857;0.0000;0.0000;0.0000;5.6627
775;0.6011;7.2858;0.0000;0.0000;0.0000;5.4694
776;0.7426;7.2858;0.0000;0.0000;0.0000;5.6675
777;0.8839;7.2857;0.0000;0.0000;0.0000;5.2192
778;1.0255;7.2862;0.0000;0.0000;0.0000;4.4843
779;1.1705;7.2921;0.0000;0.0000;0.0000;4.4659
780;-1.0322;7.1665;0.0000;0.0000;0.0000;5.5381
781;-0.8880;7.1621;0.0000;0.0000;0.0000;4.6444
782;-0.7461;7.1614;0.0000;0.0000;0.0000;4.2305
783;-0.6043;7.1614;0.0000;0.0000;0.0000;4.8150
784;-0.4627;7.1615;0.0000;0.0000;0.0000;4.8766
785;-0.3208;7.1616;0.0000;0.0000;0.0000;5.1938
786;-0.1789;7.1617;0.0000;0.0000;0.0000;5.3031
787;-0.0371;7.1618;0.0000;0.0000;0.0000;4.9777
788;0.1048;7.1620;0.0000;0.0000;0.0000;5.7918
789;0.2467;7.1622;0.0000;0.0000;0.0000;5.9908
790;0.3886;7.1623;0.0000;0.0000;0.0000;5.1557
791;0.5304;7.1624;0.0000;0.0000;0.0000;5.1531
792;0.6721;7.1624;0.0000;0.0000;0.0000;5.3171
793;0.8133;7.1624;0.0000;0.0000;0.0000;5.7773
794;0.9532;7.1626;0.0000;0.0000;0.0000;4.9409
795;1.0895;7.1632;0.0000;0.0000;0.0000;4.8749
796;1.2107;7.1629;0.0000;0.0000;0.0000;5.2025
797;-1.0769;7.0516;0.0000;0.0000;0.0000;5.1750
798;-0.9519;7.0395;0.0000;0.0000;0.0000;5.3027
799;-0.8150;7.0379;0.0000;0.0000;0.0000;6.2515
800;-0.6746;7.0379;0.0000;0.0000;0.0000;6.4825
801;-0.5332;7.0381;0.0000;0.0000;0.0000;6.4668
802;-0.3915;7.0381;0.0000;0.0000;0.0000;6.0437
803;-0.2497;7.0382;0.0000;0.0000;0.0000;5.4046
804;-0.1078;7.0384;0.0000;0.0000;0.0000;5.4051
805;0.0340;7.0386;0.0000;0.0000;0.0000;5.9917
806;0.1758;7.0387;0.0000;0.0000;0.0000;6.1321
807;0.3178;7.0388;0.0000;0.0000;0.0000;5.7283
808;0.4596;7.0390;0.0000;0.0000;0.0000;5.5923
809;0.6014;7.0391;0.0000;0.0000;0.0000;5.3285
810;0.7432;7.0392;0.0000;0.0000;0.0000;5.7979
811;0.8847;7.0394;0.0000;0.0000;0.0000;5.3696
812;1.0267;7.0396;0.0000;0.0000;0.0000;4.1597
813;1.1724;7.0359;0.0000;0.0000;0.0000;4.4781
814;-1.0387;6.9199;0.0000;0.0000;0.0000;5.5402
815;-0.8901;6.9149;0.0000;0.0000;0.0000;5.3920
816;-0.7464;6.9144;0.0000;0.0000;0.0000;6.0184
817;-0.6041;6.9146;0.0000;0.0000;0.0000;5.6697
818;-0.4623;6.9147;0.0000;0.0000;0.0000;5.8071
819;-0.3204;6.9149;0.0000;0.0000;0.0000;5.7528
820;-0.1786;6.9149;0.0000;0.0000;0.0000;5.5035
821;-0.0368;6.9151;0.0000;0.0000;0.0000;5.9724
822;0.1051;6.9152;0.0000;0.0000;0.0000;6.1636
823;0.2470;6.9154;0.0000;0.0000;0.0000;6.3863
824;0.3888;6.9155;0.0000;0.0000;0.0000;5.8434
825;0.5306;6.9157;0.0000;0.0000;0.0000;5.5713
826;0.6723;6.9158;0.0000;0.0000;0.0000;5.9558
827;0.8134;6.9159;0.0000;0.0000;0.0000;6.2410
828;0.9526;6.9162;0.0000;0.0000;0.0000;5.1194
829;1.0870;6.9153;0.0000;0.0000;0.0000;4.2992
830;1.2089;6.9054;0.0000;0.0000;0.0000;4.0643
831;-1.0787;6.7911;0.0000;0.0000;0.0000;5.1969
832;-0.9539;6.7917;0.0000;0.0000;0.0000;6.0766
833;-0.8155;6.7915;0.0000;0.0000;0.0000;5.4948
834;-0.6745;6.7914;0.0000;0.0000;0.0000;5.2222
835;-0.5330;6.7913;0.0000;0.0000;0.0000;5.4843
836;-0.3913;6.7914;0.0000;0.0000;0.0000;4.5411
837;-0.2494;6.7916;0.0000;0.0000;0.0000;4.5726
838;-0.1076;6.7916;0.0000;0.0000;0.0000;4.8631
839;0.0343;6.7917;0.0000;0.0000;0.0000;5.3136
840;0.1762;6.7919;0.0000;0.0000;0.0000;5.9523
841;0.3180;6.7920;0.0000;0.0000;0.0000;6.3141
842;0.4599;6.7922;0.0000;0.0000;0.0000;5.9694
843;0.6017;6.7924;0.0000;0.0000;0.0000;5.9974
844;0.7432;6.7924;0.0000;0.0000;0.0000;6.4593
845;0.8841;6.7925;0.0000;0.0000;0.0000;6.0477
846;1.0239;6.7920;0.0000;0.0000;0.0000;4.6728
847;1.1645;6.7888;0.0000;0.0000;0.0000;3.8307
848;-1.0352;6.6631;0.0000;0.0000;0.0000;6.0941
849;-0.8881;6.6682;0.0000;0.0000;0.0000;5.7318
850;-0.7454;6.6683;0.0000;0.0000;0.0000;5.4777
851;-0.6036;6.6682;0.0000;0.0000;0.0000;5.3561
852;-0.4620;6.6681;0.0000;0.0000;0.0000;5.2682
853;-0.3202;6.6681;0.0000;0.0000;0.0000;4.1719
854;-0.1783;6.6682;0.0000;0.0000;0.0000;4.1658
855;-0.0365;6.6683;0.0000;0.0000;0.0000;4.7612
856;0.1054;6.6684;0.0000;0.0000;0.0000;5.1286
857;0.2473;6.6686;0.0000;0.0000;0.0000;5.6356
858;0.3892;6.6687;0.0000;0.0000;0.0000;6.4991
859;0.5309;6.6689;0.0000;0.0000;0.0000;6.1107
860;0.6725;6.6691;0.0000;0.0000;0.0000;6.1675
861;0.8137;6.6691;0.0000;0.0000;0.0000;6.3806
862;0.9534;6.6690;0.0000;0.0000;0.0000;5.5888
863;1.0903;6.6690;0.0000;0.0000;0.0000;4.5564
864;1.2236;6.6696;0.0000;0.0000;0.0000;4.1540
865;-1.0687;6.5314;0.0000;0.0000;0.0000;6.0923
866;-0.9468;6.5436;0.0000;0.0000;0.0000;6.4374
867;-0.8121;6.5449;0.0000;0.0000;0.0000;6.3976
868;-0.6731;6.5448;0.0000;0.0000;0.0000;6.1741
869;-0.5323;6.5447;0.0000;0.0000;0.0000;5.9020
870;-0.3908;6.5447;0.0000;0.0000;0.0000;5.0748
871;-0.2491;6.5448;0.0000;0.0000;0.0000;4.8167
872;-0.1072;6.5449;0.0000;0.0000;0.0000;4.3491
873;0.0346;6.5450;0.0000;0.0000;0.0000;4.0464
874;0.1765;6.5451;0.0000;0.0000;0.0000;3.7752
875;0.3184;6.5453;0.0000;0.0000;0.0000;5.3338
876;0.4602;6.5454;0.0000;0.0000;0.0000;5.9536
877;0.6019;6.5456;0.0000;0.0000;0.0000;5.8613
878;0.7435;6.5457;0.0000;0.0000;0.0000;5.7861
879;0.8845;6.5456;0.0000;0.0000;0.0000;6.1199
880;1.0247;6.5458;0.0000;0.0000;0.0000;4.8723
881;1.1659;6.5496;0.0000;0.0000;0.0000;4.7393
882;-1.0221;6.4160;0.0000;0.0000;0.0000;7.0319
883;-0.8821;6.4205;0.0000;0.0000;0.0000;6.1457
884;-0.7428;6.4211;0.0000;0.0000;0.0000;5.2563
885;-0.6024;6.4212;0.0000;0.0000;0.0000;6.0162
886;-0.4613;6.4213;0.0000;0.0000;0.0000;5.8570
887;-0.3197;6.4214;0.0000;0.0000;0.0000;6.0127
888;-0.1780;6.4215;0.0000;0.0000;0.0000;5.6325
889;-0.0362;6.4216;0.0000;0.0000;0.0000;5.4611
890;0.1056;6.4217;0.0000;0.0000;0.0000;4.3255
891;0.2475;6.4219;0.0000;0.0000;0.0000;4.1465
892;0.3894;6.4220;0.0000;0.0000;0.0000;5.6903
893;0.5311;6.4222;0.0000;0.0000;0.0000;5.5717
894;0.6729;6.4223;0.0000;0.0000;0.0000;5.6417
895;0.8141;6.4222;0.0000;0.0000;0.0000;5.0840
896;0.9538;6.4218;0.0000;0.0000;0.0000;5.0459
897;1.0892;6.4227;0.0000;0.0000;0.0000;5.1623
898;1.2122;6.4341;0.0000;0.0000;0.0000;4.9720
899;-1.0778;6.2952;0.0000;0.0000;0.0000;5.8106
900;-0.9464;6.2973;0.0000;0.0000;0.0000;5.2301
901;-0.8107;6.2976;0.0000;0.0000;0.0000;4.9195
902;-0.6720;6.2977;0.0000;0.0000;0.0000;4.6881
903;-0.5316;6.2979;0.0000;0.0000;0.0000;5.1903
904;-0.3903;6.2980;0.0000;0.0000;0.0000;5.5328
905;-0.2487;6.2980;0.0000;0.0000;0.0000;5.6745
906;-0.1070;6.2982;0.0000;0.0000;0.0000;5.8097
907;0.0349;6.2983;0.0000;0.0000;0.0000;4.7279
908;0.1767;6.2984;0.0000;0.0000;0.0000;4.8552
909;0.3185;6.2986;0.0000;0.0000;0.0000;5.8010
910;0.4604;6.2987;0.0000;0.0000;0.0000;5.7542
911;0.6023;6.2989;0.0000;0.0000;0.0000;5.6535
912;0.7441;6.2989;0.0000;0.0000;0.0000;5.0267
913;0.8863;6.2987;0.0000;0.0000;0.0000;4.6776
914;1.0296;6.2985;0.0000;0.0000;0.0000;5.0109
915;1.1776;6.3029;0.0000;0.0000;0.0000;5.3535
916;-1.0190;6.1770;0.0000;0.0000;0.0000;5.2673
917;-0.8801;6.1744;0.0000;0.0000;0.0000;5.0153
918;-0.7416;6.1743;0.0000;0.0000;0.0000;4.6417
919;-0.6018;6.1745;0.0000;0.0000;0.0000;4.5210
920;-0.4608;6.1745;0.0000;0.0000;0.0000;5.1238
921;-0.3194;6.1746;0.0000;0.0000;0.0000;5.1339
922;-0.1777;6.1748;0.0000;0.0000;0.0000;4.8093
923;-0.0359;6.1748;0.0000;0.0000;0.0000;5.7927
924;0.1060;6.1749;0.0000;0.0000;0.0000;5.4532
925;0.2478;6.1751;0.0000;0.0000;0.0000;6.0276
926;0.3897;6.1753;0.0000;0.0000;0.0000;6.4549
927;0.5316;6.1754;0.0000;0.0000;0.0000;5.3806
928;0.6733;6.1756;0.0000;0.0000;0.0000;5.5171
929;0.8150;6.1756;0.0000;0.0000;0.0000;5.8325
930;0.9562;6.1754;0.0000;0.0000;0.0000;5.8745
931;1.0950;6.1750;0.0000;0.0000;0.0000;5.5372
932;1.2198;6.1745;0.0000;0.0000;0.0000;5.8486
933;-1.0615;6.0597;0.0000;0.0000;0.0000;4.7362
934;-0.9419;6.0513;0.0000;0.0000;0.0000;5.2870
935;-0.8091;6.0506;0.0000;0.0000;0.0000;4.7966
936;-0.6712;6.0509;0.0000;0.0000;0.0000;4.4891
937;-0.5311;6.0512;0.0000;0.0000;0.0000;5.0599
938;-0.3900;6.0513;0.0000;0.0000;0.0000;5.4318
939;-0.2484;6.0513;0.0000;0.0000;0.0000;5.5245
940;-0.1066;6.0514;0.0000;0.0000;0.0000;5.8631
941;0.0352;6.0515;0.0000;0.0000;0.0000;6.0031
942;0.1771;6.0517;0.0000;0.0000;0.0000;5.5595
943;0.3189;6.0518;0.0000;0.0000;0.0000;5.2690
944;0.4608;6.0520;0.0000;0.0000;0.0000;5.8740
945;0.6026;6.0521;0.0000;0.0000;0.0000;5.5066
946;0.7445;6.0523;0.0000;0.0000;0.0000;5.0617
947;0.8868;6.0524;0.0000;0.0000;0.0000;5.4357
948;1.0304;6.0519;0.0000;0.0000;0.0000;5.3154
949;1.1788;6.0459;0.0000;0.0000;0.0000;5.2730
950;-1.0252;5.9304;0.0000;0.0000;0.0000;5.6448
951;-0.8822;5.9274;0.0000;0.0000;0.0000;5.4882
952;-0.7420;5.9274;0.0000;0.0000;0.0000;3.9287
953;-0.6015;5.9277;0.0000;0.0000;0.0000;3.5822
954;-0.4605;5.9279;0.0000;0.0000;0.0000;4.3045
955;-0.3191;5.9279;0.0000;0.0000;0.0000;4.4707
956;-0.1774;5.9280;0.0000;0.0000;0.0000;5.1120
957;-0.0356;5.9281;0.0000;0.0000;0.0000;5.1172
958;0.1063;5.9282;0.0000;0.0000;0.0000;5.1715
959;0.2481;5.9284;0.0000;0.0000;0.0000;4.8692
960;0.3900;5.9286;0.0000;0.0000;0.0000;4.6234
961;0.5318;5.9287;0.0000;0.0000;0.0000;5.0079
962;0.6735;5.9289;0.0000;0.0000;0.0000;4.4313
963;0.8150;5.9291;0.0000;0.0000;0.0000;5.2353
964;0.9552;5.9289;0.0000;0.0000;0.0000;5.4484
965;1.0915;5.9267;0.0000;0.0000;0.0000;4.9388
966;1.2158;5.9132;0.0000;0.0000;0.0000;5.1290
967;-1.0610;5.8039;0.0000;0.0000;0.0000;6.0910
968;-0.9428;5.8041;0.0000;0.0000;0.0000;5.8683
969;-0.8091;5.8046;0.0000;0.0000;0.0000;5.3902
970;-0.6709;5.8045;0.0000;0.0000;0.0000;4.7367
971;-0.5307;5.8045;0.0000;0.0000;0.0000;4.1277
972;-0.3897;5.8045;0.0000;0.0000;0.0000;5.4213
973;-0.2482;5.8046;0.0000;0.0000;0.0000;4.4401
974;-0.1064;5.8048;0.0000;0.0000;0.0000;4.6312
975;0.0354;5.8049;0.0000;0.0000;0.0000;5.4681
976;0.1772;5.8051;0.0000;0.0000;0.0000;4.8176
977;0.3192;5.8053;0.0000;0.0000;0.0000;4.3832
978;0.4610;5.8054;0.0000;0.0000;0.0000;5.4274
979;0.6029;5.8056;0.0000;0.0000;0.0000;5.2170
980;0.7446;5.8057;0.0000;0.0000;0.0000;5.3233
981;0.8860;5.8056;0.0000;0.0000;0.0000;5.0748
982;1.0272;5.8045;0.0000;0.0000;0.0000;5.1470
983;1.1703;5.7986;0.0000;0.0000;0.0000;4.8876
984;-1.0210;5.6764;0.0000;0.0000;0.0000;6.2248
985;-0.8795;5.6821;0.0000;0.0000;0.0000;6.2038
986;-0.7406;5.6817;0.0000;0.0000;0.0000;5.8390
987;-0.6010;5.6814;0.0000;0.0000;0.0000;5.4178
988;-0.4604;5.6814;0.0000;0.0000;0.0000;5.7590
989;-0.3191;5.6816;0.0000;0.0000;0.0000;4.6982
990;-0.1774;5.6818;0.0000;0.0000;0.0000;4.3854
991;-0.0356;5.6820;0.0000;0.0000;0.0000;5.4751
992;0.1062;5.6822;0.0000;0.0000;0.0000;6.1719
993;0.2480;5.6824;0.0000;0.0000;0.0000;5.0276
994;0.3898;5.6826;0.0000;0.0000;0.0000;5.0459
995;0.5318;5.6827;0.0000;0.0000;0.0000;5.5254
996;0.6735;5.6828;0.0000;0.0000;0.0000;5.7410
997;0.8149;5.6830;0.0000;0.0000;0.0000;5.3224
998;0.9557;5.6828;0.0000;0.0000;0.0000;5.3233
999;1.0948;5.6813;0.0000;0.0000;0.0000;5.4186
1000;1.2316;5.6778;0.0000;0.0000;0.0000;5.4913
1001;-1.0523;5.5455;0.0000;0.0000;0.0000;5.5372
1002;-0.9353;5.5599;0.0000;0.0000;0.0000;5.4939
1003;-0.8064;5.5590;0.0000;0.0000;0.0000;4.3972
1004;-0.6708;5.5583;0.0000;0.0000;0.0000;3.7559
1005;-0.5319;5.5584;0.0000;0.0000;0.0000;4.2664
1006;-0.3913;5.5589;0.0000;0.0000;0.0000;6.1697
1007;-0.2499;5.5592;0.0000;0.0000;0.0000;5.8395
1008;-0.1082;5.5595;0.0000;0.0000;0.0000;5.9602
1009;0.0336;5.5598;0.0000;0.0000;0.0000;6.8815
1010;0.1755;5.5601;0.0000;0.0000;0.0000;6.1146
1011;0.3172;5.5605;0.0000;0.0000;0.0000;5.7266
1012;0.4591;5.5607;0.0000;0.0000;0.0000;5.3736
1013;0.6009;5.5611;0.0000;0.0000;0.0000;5.6426
1014;0.7427;5.5614;0.0000;0.0000;0.0000;5.7725
1015;0.8844;5.5614;0.0000;0.0000;0.0000;5.1802
1016;1.0262;5.5611;0.0000;0.0000;0.0000;5.4593
1017;1.1708;5.5627;0.0000;0.0000;0.0000;5.7699
1018;-1.0068;5.4386;0.0000;0.0000;0.0000;4.4055
1019;-0.8780;5.4359;0.0000;0.0000;0.0000;4.3578
1020;-0.7450;5.4355;0.0000;0.0000;0.0000;3.6667
1021;-0.6078;5.4360;0.0000;0.0000;0.0000;3.4016
1022;-0.4681;5.4367;0.0000;0.0000;0.0000;5.2787
1023;-0.3272;5.4373;0.0000;0.0000;0.0000;6.0757
1024;-0.1857;5.4379;0.0000;0.0000;0.0000;5.8307
1025;-0.0441;5.4384;0.0000;0.0000;0.0000;6.7913
1026;0.0977;5.4389;0.0000;0.0000;0.0000;6.0171
1027;0.2395;5.4395;0.0000;0.0000;0.0000;5.2157
1028;0.3813;5.4400;0.0000;0.0000;0.0000;6.1899
1029;0.5231;5.4406;0.0000;0.0000;0.0000;6.0201
1030;0.6648;5.4411;0.0000;0.0000;0.0000;5.6903
1031;0.8064;5.4414;0.0000;0.0000;0.0000;5.6260
1032;0.9476;5.4412;0.0000;0.0000;0.0000;5.4322
1033;1.0874;5.4414;0.0000;0.0000;0.0000;5.8535
1034;1.2198;5.4510;0.0000;0.0000;0.0000;5.9191
1035;-1.0618;5.3335;0.0000;0.0000;0.0000;4.9059
1036;-0.9545;5.3129;0.0000;0.0000;0.0000;4.5735
1037;-0.8293;5.3124;0.0000;0.0000;0.0000;5.2428
1038;-0.6944;5.3139;0.0000;0.0000;0.0000;4.1465
1039;-0.5556;5.3155;0.0000;0.0000;0.0000;3.8600
1040;-0.4151;5.3165;0.0000;0.0000;0.0000;5.0039
1041;-0.2738;5.3175;0.0000;0.0000;0.0000;6.3360
1042;-0.1323;5.3184;0.0000;0.0000;0.0000;6.7047
1043;0.0094;5.3192;0.0000;0.0000;0.0000;6.1934
1044;0.1510;5.3200;0.0000;0.0000;0.0000;5.3416
1045;0.2928;5.3210;0.0000;0.0000;0.0000;5.1159
1046;0.4345;5.3217;0.0000;0.0000;0.0000;5.9869
1047;0.5762;5.3227;0.0000;0.0000;0.0000;5.8399
1048;0.7181;5.3235;0.0000;0.0000;0.0000;5.6041
1049;0.8611;5.3240;0.0000;0.0000;0.0000;6.2765
1050;1.0078;5.3238;0.0000;0.0000;0.0000;6.2371
1051;1.1657;5.3283;0.0000;0.0000;0.0000;5.5179
1052;-0.9918;3.4717;0.0000;0.0000;0.0000;4.2025
1053;-0.8728;3.4547;0.0000;0.0000;0.0000;3.5206
1054;-0.7411;3.4505;0.0000;0.0000;0.0000;3.2668
1055;-0.6043;3.4463;0.0000;0.0000;0.0000;4.0713
1056;-0.4657;3.4415;0.0000;0.0000;0.0000;5.8780
1057;-0.3266;3.4367;0.0000;0.0000;0.0000;6.6500
1058;-0.1876;3.4320;0.0000;0.0000;0.0000;6.6680
1059;-0.0483;3.4273;0.0000;0.0000;0.0000;5.2760
1060;0.0912;3.4230;0.0000;0.0000;0.0000;5.3583
1061;0.2312;3.4187;0.0000;0.0000;0.0000;6.5494
1062;0.3709;3.4143;0.0000;0.0000;0.0000;5.6907
1063;0.5101;3.4101;0.0000;0.0000;0.0000;5.3465
1064;0.6490;3.4057;0.0000;0.0000;0.0000;6.1785
1065;0.7882;3.4008;0.0000;0.0000;0.0000;5.6610
1066;0.9274;3.3961;0.0000;0.0000;0.0000;4.8644
1067;1.0665;3.3931;0.0000;0.0000;0.0000;5.0608
1068;1.2089;3.3947;0.0000;0.0000;0.0000;4.8539
1069;-0.9572;3.3406;0.0000;0.0000;0.0000;3.4370
1070;-0.8152;3.3308;0.0000;0.0000;0.0000;3.8058
1071;-0.6771;3.3267;0.0000;0.0000;0.0000;3.6977
1072;-0.5386;3.3228;0.0000;0.0000;0.0000;5.5293
1073;-0.3996;3.3186;0.0000;0.0000;0.0000;6.5214
1074;-0.2606;3.3145;0.0000;0.0000;0.0000;6.8955
1075;-0.1214;3.3107;0.0000;0.0000;0.0000;5.5149
1076;0.0180;3.3071;0.0000;0.0000;0.0000;4.0035
1077;0.1578;3.3035;0.0000;0.0000;0.0000;5.4812
1078;0.2978;3.2998;0.0000;0.0000;0.0000;5.5481
1079;0.4372;3.2961;0.0000;0.0000;0.0000;4.9978
1080;0.5761;3.2924;0.0000;0.0000;0.0000;6.0376
1081;0.7148;3.2885;0.0000;0.0000;0.0000;5.2756
1082;0.8533;3.2847;0.0000;0.0000;0.0000;4.7419
1083;0.9907;3.2819;0.0000;0.0000;0.0000;5.2231
1084;1.1253;3.2829;0.0000;0.0000;0.0000;5.4589
1085;1.2548;3.2946;0.0000;0.0000;0.0000;5.3561
1086;-0.9954;3.2127;0.0000;0.0000;0.0000;3.8565
1087;-0.8786;3.2104;0.0000;0.0000;0.0000;4.8915
1088;-0.7465;3.2057;0.0000;0.0000;0.0000;4.4956
1089;-0.6100;3.2022;0.0000;0.0000;0.0000;4.6667
1090;-0.4714;3.1983;0.0000;0.0000;0.0000;5.8425
1091;-0.3324;3.1946;0.0000;0.0000;0.0000;6.7139
1092;-0.1933;3.1912;0.0000;0.0000;0.0000;6.6745
1093;-0.0539;3.1881;0.0000;0.0000;0.0000;5.0070
1094;0.0856;3.1849;0.0000;0.0000;0.0000;4.6220
1095;0.2254;3.1819;0.0000;0.0000;0.0000;5.7406
1096;0.3650;3.1786;0.0000;0.0000;0.0000;5.8351
1097;0.5042;3.1753;0.0000;0.0000;0.0000;5.6540
1098;0.6430;3.1718;0.0000;0.0000;0.0000;6.1509
1099;0.7814;3.1684;0.0000;0.0000;0.0000;5.6662
1100;0.9185;3.1653;0.0000;0.0000;0.0000;5.9322
1101;1.0517;3.1633;0.0000;0.0000;0.0000;6.0262
1102;1.1755;3.1652;0.0000;0.0000;0.0000;5.5512
1103;1.2780;3.1689;0.0000;0.0000;0.0000;5.4799
1104;-0.9595;3.0845;0.0000;0.0000;0.0000;4.4711
1105;-0.8193;3.0839;0.0000;0.0000;0.0000;5.6352
1106;-0.6816;3.0801;0.0000;0.0000;0.0000;5.7896
1107;-0.5432;3.0766;0.0000;0.0000;0.0000;5.2598
1108;-0.4041;3.0731;0.0000;0.0000;0.0000;6.1247
1109;-0.2649;3.0696;0.0000;0.0000;0.0000;6.1085
1110;-0.1256;3.0667;0.0000;0.0000;0.0000;5.7668
1111;0.0138;3.0640;0.0000;0.0000;0.0000;5.7148
1112;0.1535;3.0612;0.0000;0.0000;0.0000;5.9191
1113;0.2931;3.0584;0.0000;0.0000;0.0000;6.0354
1114;0.4323;3.0552;0.0000;0.0000;0.0000;5.4007
1115;0.5712;3.0520;0.0000;0.0000;0.0000;5.1925
1116;0.7099;3.0488;0.0000;0.0000;0.0000;5.3360
1117;0.8478;3.0455;0.0000;0.0000;0.0000;5.2638
1118;0.9841;3.0425;0.0000;0.0000;0.0000;5.1150
1119;1.1168;3.0407;0.0000;0.0000;0.0000;5.5739
1120;1.2464;3.0401;0.0000;0.0000;0.0000;5.7218
1121;-0.9939;2.9542;0.0000;0.0000;0.0000;5.9965
1122;-0.8778;2.9600;0.0000;0.0000;0.0000;5.3994
1123;-0.7485;2.9573;0.0000;0.0000;0.0000;4.7428
1124;-0.6135;2.9538;0.0000;0.0000;0.0000;5.3845
1125;-0.4755;2.9505;0.0000;0.0000;0.0000;5.5936
1126;-0.3365;2.9470;0.0000;0.0000;0.0000;5.3679
1127;-0.1973;2.9440;0.0000;0.0000;0.0000;5.5446
1128;-0.0581;2.9415;0.0000;0.0000;0.0000;5.9681
1129;0.0814;2.9387;0.0000;0.0000;0.0000;6.1737
1130;0.2213;2.9361;0.0000;0.0000;0.0000;6.4160
1131;0.3607;2.9333;0.0000;0.0000;0.0000;6.3040
1132;0.4995;2.9302;0.0000;0.0000;0.0000;5.6439
1133;0.6383;2.9271;0.0000;0.0000;0.0000;4.9681
1134;0.7767;2.9239;0.0000;0.0000;0.0000;4.2559
1135;0.9135;2.9207;0.0000;0.0000;0.0000;5.3351
1136;1.0462;2.9180;0.0000;0.0000;0.0000;6.1789
1137;1.1704;2.9149;0.0000;0.0000;0.0000;6.0140
1138;1.2777;2.9133;0.0000;0.0000;0.0000;5.4094
1139;-0.9525;2.8339;0.0000;0.0000;0.0000;5.5739
1140;-0.8185;2.8333;0.0000;0.0000;0.0000;4.3311
1141;-0.6838;2.8303;0.0000;0.0000;0.0000;5.2266
1142;-0.5468;2.8272;0.0000;0.0000;0.0000;6.0166
1143;-0.4081;2.8238;0.0000;0.0000;0.0000;4.5818
1144;-0.2690;2.8205;0.0000;0.0000;0.0000;5.0621
1145;-0.1299;2.8178;0.0000;0.0000;0.0000;6.2476
1146;0.0095;2.8152;0.0000;0.0000;0.0000;6.8806
1147;0.1493;2.8128;0.0000;0.0000;0.0000;7.0302
1148;0.2888;2.8101;0.0000;0.0000;0.0000;6.7511
1149;0.4279;2.8071;0.0000;0.0000;0.0000;6.9733
1150;0.5666;2.8041;0.0000;0.0000;0.0000;6.3408
1151;0.7052;2.8011;0.0000;0.0000;0.0000;5.3325
1152;0.8433;2.7981;0.0000;0.0000;0.0000;5.6916
1153;0.9790;2.7951;0.0000;0.0000;0.0000;5.5704
1154;1.1115;2.7924;0.0000;0.0000;0.0000;6.5516
1155;1.2435;2.7860;0.0000;0.0000;0.0000;5.1194
1156;-1.0075;2.7138;0.0000;0.0000;0.0000;6.1562
1157;-0.8827;2.7100;0.0000;0.0000;0.0000;4.8088
1158;-0.7521;2.7065;0.0000;0.0000;0.0000;5.9436
1159;-0.6173;2.7033;0.0000;0.0000;0.0000;6.6750
1160;-0.4797;2.6999;0.0000;0.0000;0.0000;5.6514
1161;-0.3406;2.6969;0.0000;0.0000;0.0000;5.7375
1162;-0.2016;2.6939;0.0000;0.0000;0.0000;6.5862
1163;-0.0626;2.6912;0.0000;0.0000;0.0000;6.5857
1164;0.0770;2.6888;0.0000;0.0000;0.0000;7.0241
1165;0.2168;2.6863;0.0000;0.0000;0.0000;6.4742
1166;0.3561;2.6834;0.0000;0.0000;0.0000;6.0586
1167;0.4950;2.6803;0.0000;0.0000;0.0000;6.6885
1168;0.6337;2.6773;0.0000;0.0000;0.0000;6.2546
1169;0.7721;2.6746;0.0000;0.0000;0.0000;6.1312
1170;0.9086;2.6719;0.0000;0.0000;0.0000;6.8408
1171;1.0408;2.6697;0.0000;0.0000;0.0000;7.3482
1172;1.1642;2.6682;0.0000;0.0000;0.0000;5.8399
1173;1.2742;2.6555;0.0000;0.0000;0.0000;5.0556
1174;-0.9546;2.5900;0.0000;0.0000;0.0000;5.7738
1175;-0.8216;2.5831;0.0000;0.0000;0.0000;6.1251
1176;-0.6876;2.5793;0.0000;0.0000;0.0000;6.2200
1177;-0.5511;2.5759;0.0000;0.0000;0.0000;5.8771
1178;-0.4126;2.5728;0.0000;0.0000;0.0000;5.4672
1179;-0.2734;2.5699;0.0000;0.0000;0.0000;5.4891
1180;-0.1345;2.5671;0.0000;0.0000;0.0000;6.1199
1181;0.0047;2.5645;0.0000;0.0000;0.0000;6.7983
1182;0.1445;2.5620;0.0000;0.0000;0.0000;6.5241
1183;0.2842;2.5594;0.0000;0.0000;0.0000;6.0136
1184;0.4231;2.5565;0.0000;0.0000;0.0000;6.1522
1185;0.5620;2.5535;0.0000;0.0000;0.0000;6.2638
1186;0.7009;2.5507;0.0000;0.0000;0.0000;5.6977
1187;0.8390;2.5480;0.0000;0.0000;0.0000;6.4641
1188;0.9744;2.5459;0.0000;0.0000;0.0000;6.2528
1189;1.1049;2.5448;0.0000;0.0000;0.0000;5.8937
1190;1.2310;2.5455;0.0000;0.0000;0.0000;5.0354
1191;-0.9970;2.4714;0.0000;0.0000;0.0000;5.2367
1192;-0.8833;2.4596;0.0000;0.0000;0.0000;5.8360
1193;-0.7557;2.4549;0.0000;0.0000;0.0000;6.7082
1194;-0.6215;2.4518;0.0000;0.0000;0.0000;5.4764
1195;-0.4841;2.4486;0.0000;0.0000;0.0000;4.8473
1196;-0.3454;2.4456;0.0000;0.0000;0.0000;5.4956
1197;-0.2063;2.4427;0.0000;0.0000;0.0000;5.3106
1198;-0.0672;2.4400;0.0000;0.0000;0.0000;6.0892
1199;0.0723;2.4376;0.0000;0.0000;0.0000;6.4409
1200;0.2121;2.4351;0.0000;0.0000;0.0000;6.4388
1201;0.3513;2.4323;0.0000;0.0000;0.0000;5.7371
1202;0.4902;2.4296;0.0000;0.0000;0.0000;6.0210
1203;0.6294;2.4267;0.0000;0.0000;0.0000;6.1680
1204;0.7685;2.4243;0.0000;0.0000;0.0000;6.3495
1205;0.9060;2.4224;0.0000;0.0000;0.0000;4.9003
1206;1.0392;2.4210;0.0000;0.0000;0.0000;3.8185
1207;1.1637;2.4217;0.0000;0.0000;0.0000;4.3692
1208;1.2750;2.4385;0.0000;0.0000;0.0000;5.2598
1209;-0.9652;2.3387;0.0000;0.0000;0.0000;6.3863
1210;-0.8287;2.3313;0.0000;0.0000;0.0000;6.8683
1211;-0.6930;2.3278;0.0000;0.0000;0.0000;6.1251
1212;-0.5559;2.3245;0.0000;0.0000;0.0000;5.0429
1213;-0.4175;2.3214;0.0000;0.0000;0.0000;5.1522
1214;-0.2783;2.3186;0.0000;0.0000;0.0000;5.4414
1215;-0.1392;2.3158;0.0000;0.0000;0.0000;6.1391
1216;0.0002;2.3132;0.0000;0.0000;0.0000;7.0529
1217;0.1400;2.3106;0.0000;0.0000;0.0000;6.1514
1218;0.2796;2.3079;0.0000;0.0000;0.0000;6.1032
1219;0.4187;2.3052;0.0000;0.0000;0.0000;6.5652
1220;0.5581;2.3028;0.0000;0.0000;0.0000;6.5801
1221;0.6977;2.3007;0.0000;0.0000;0.0000;6.5162
1222;0.8372;2.2991;0.0000;0.0000;0.0000;5.2708
1223;0.9753;2.2980;0.0000;0.0000;0.0000;3.7760
1224;1.1104;2.2979;0.0000;0.0000;0.0000;3.7717
1225;1.2453;2.3065;0.0000;0.0000;0.0000;5.0984
1226;-1.0034;2.2119;0.0000;0.0000;0.0000;6.5783
1227;-0.8899;2.2071;0.0000;0.0000;0.0000;7.4808
1228;-0.7609;2.2037;0.0000;0.0000;0.0000;6.9374
1229;-0.6265;2.2004;0.0000;0.0000;0.0000;5.6234
1230;-0.4891;2.1972;0.0000;0.0000;0.0000;5.1115
1231;-0.3503;2.1943;0.0000;0.0000;0.0000;4.0035
1232;-0.2110;2.1916;0.0000;0.0000;0.0000;4.5044
1233;-0.0718;2.1890;0.0000;0.0000;0.0000;6.1439
1234;0.0677;2.1862;0.0000;0.0000;0.0000;5.5840
1235;0.2075;2.1834;0.0000;0.0000;0.0000;5.9873
1236;0.3471;2.1808;0.0000;0.0000;0.0000;6.7625
1237;0.4867;2.1787;0.0000;0.0000;0.0000;6.7052
1238;0.6267;2.1770;0.0000;0.0000;0.0000;6.4339
1239;0.7671;2.1759;0.0000;0.0000;0.0000;6.2498
1240;0.9064;2.1753;0.0000;0.0000;0.0000;4.7021
1241;1.0424;2.1748;0.0000;0.0000;0.0000;3.8998
1242;1.1712;2.1767;0.0000;0.0000;0.0000;4.8106
1243;1.2825;2.1794;0.0000;0.0000;0.0000;5.4199
1244;-0.9680;2.0793;0.0000;0.0000;0.0000;7.0197
1245;-0.8321;2.0794;0.0000;0.0000;0.0000;7.0083
1246;-0.6971;2.0762;0.0000;0.0000;0.0000;6.1964
1247;-0.5606;2.0729;0.0000;0.0000;0.0000;5.1234
1248;-0.4223;2.0700;0.0000;0.0000;0.0000;3.7870
1249;-0.2830;2.0673;0.0000;0.0000;0.0000;3.1877
1250;-0.1437;2.0646;0.0000;0.0000;0.0000;3.2091
1251;-0.0045;2.0621;0.0000;0.0000;0.0000;5.4479
1252;0.1353;2.0592;0.0000;0.0000;0.0000;6.4042
1253;0.2753;2.0566;0.0000;0.0000;0.0000;5.7800
1254;0.4151;2.0545;0.0000;0.0000;0.0000;5.7944
1255;0.5555;2.0532;0.0000;0.0000;0.0000;6.1903
1256;0.6966;2.0527;0.0000;0.0000;0.0000;6.5433
1257;0.8372;2.0524;0.0000;0.0000;0.0000;5.5031
1258;0.9765;2.0520;0.0000;0.0000;0.0000;4.8539
1259;1.1134;2.0525;0.0000;0.0000;0.0000;4.0367
1260;1.2492;2.0523;0.0000;0.0000;0.0000;5.4974
1261;-1.0002;1.9464;0.0000;0.0000;0.0000;6.1282
1262;-0.8890;1.9537;0.0000;0.0000;0.0000;6.6724
1263;-0.7631;1.9519;0.0000;0.0000;0.0000;6.5136
1264;-0.6300;1.9487;0.0000;0.0000;0.0000;5.0840
1265;-0.4934;1.9457;0.0000;0.0000;0.0000;5.1675
1266;-0.3548;1.9431;0.0000;0.0000;0.0000;5.1977
1267;-0.2155;1.9405;0.0000;0.0000;0.0000;4.4755
1268;-0.0764;1.9378;0.0000;0.0000;0.0000;4.6474
1269;0.0631;1.9352;0.0000;0.0000;0.0000;5.3469
1270;0.2033;1.9326;0.0000;0.0000;0.0000;5.3933
1271;0.3438;1.9307;0.0000;0.0000;0.0000;4.6010
1272;0.4845;1.9297;0.0000;0.0000;0.0000;5.0936
1273;0.6258;1.9293;0.0000;0.0000;0.0000;6.5381
1274;0.7669;1.9292;0.0000;0.0000;0.0000;6.0433
1275;0.9066;1.9291;0.0000;0.0000;0.0000;5.8976
1276;1.0423;1.9291;0.0000;0.0000;0.0000;6.0197
1277;1.1699;1.9295;0.0000;0.0000;0.0000;5.9143
1278;1.2827;1.9262;0.0000;0.0000;0.0000;5.2043
1279;-0.9616;1.8258;0.0000;0.0000;0.0000;4.6632
1280;-0.8319;1.8269;0.0000;0.0000;0.0000;5.0888
1281;-0.6996;1.8243;0.0000;0.0000;0.0000;6.1028
1282;-0.5640;1.8214;0.0000;0.0000;0.0000;5.4549
1283;-0.4261;1.8188;0.0000;0.0000;0.0000;4.9248
1284;-0.2871;1.8162;0.0000;0.0000;0.0000;5.3163
1285;-0.1481;1.8135;0.0000;0.0000;0.0000;5.8771
1286;-0.0086;1.8110;0.0000;0.0000;0.0000;5.8360
1287;0.1316;1.8088;0.0000;0.0000;0.0000;6.6960
1288;0.2723;1.8069;0.0000;0.0000;0.0000;5.4554
1289;0.4134;1.8061;0.0000;0.0000;0.0000;5.3241
1290;0.5548;1.8059;0.0000;0.0000;0.0000;5.8408
1291;0.6964;1.8058;0.0000;0.0000;0.0000;6.1356
1292;0.8371;1.8057;0.0000;0.0000;0.0000;5.6006
1293;0.9756;1.8055;0.0000;0.0000;0.0000;5.1728
1294;1.1104;1.8055;0.0000;0.0000;0.0000;5.2598
1295;1.2425;1.8059;0.0000;0.0000;0.0000;5.4357
1296;-1.0143;1.7024;0.0000;0.0000;0.0000;3.0074
1297;-0.8943;1.7027;0.0000;0.0000;0.0000;3.4624
1298;-0.7671;1.6999;0.0000;0.0000;0.0000;5.3045
1299;-0.6340;1.6971;0.0000;0.0000;0.0000;6.0682
1300;-0.4972;1.6946;0.0000;0.0000;0.0000;4.8963
1301;-0.3587;1.6920;0.0000;0.0000;0.0000;4.7813
1302;-0.2196;1.6894;0.0000;0.0000;0.0000;6.4759
1303;-0.0802;1.6872;0.0000;0.0000;0.0000;6.7275
1304;0.0599;1.6850;0.0000;0.0000;0.0000;6.4703
1305;0.2007;1.6834;0.0000;0.0000;0.0000;6.2647
1306;0.3422;1.6827;0.0000;0.0000;0.0000;6.7734
1307;0.4839;1.6826;0.0000;0.0000;0.0000;6.5906
1308;0.6256;1.6825;0.0000;0.0000;0.0000;5.8040
1309;0.7668;1.6824;0.0000;0.0000;0.0000;5.1505
1310;0.9065;1.6821;0.0000;0.0000;0.0000;5.3679
1311;1.0426;1.6819;0.0000;0.0000;0.0000;5.4821
1312;1.1725;1.6833;0.0000;0.0000;0.0000;5.4169
1313;1.2950;1.6891;0.0000;0.0000;0.0000;5.6706
1314;-0.9644;1.5812;0.0000;0.0000;0.0000;4.1807
1315;-0.8354;1.5760;0.0000;0.0000;0.0000;5.3928
1316;-0.7036;1.5728;0.0000;0.0000;0.0000;6.0499
1317;-0.5681;1.5704;0.0000;0.0000;0.0000;5.3902
1318;-0.4301;1.5681;0.0000;0.0000;0.0000;5.4169
1319;-0.2910;1.5655;0.0000;0.0000;0.0000;5.9523
1320;-0.1516;1.5632;0.0000;0.0000;0.0000;5.4860
1321;-0.0115;1.5613;0.0000;0.0000;0.0000;5.2782
1322;0.1294;1.5599;0.0000;0.0000;0.0000;5.9252
1323;0.2711;1.5593;0.0000;0.0000;0.0000;6.6185
1324;0.4129;1.5593;0.0000;0.0000;0.0000;6.5026
1325;0.5547;1.5592;0.0000;0.0000;0.0000;6.9296
1326;0.6962;1.5591;0.0000;0.0000;0.0000;6.5367
1327;0.8369;1.5589;0.0000;0.0000;0.0000;5.4786
1328;0.9756;1.5585;0.0000;0.0000;0.0000;5.1426
1329;1.1106;1.5592;0.0000;0.0000;0.0000;5.5245
1330;1.2431;1.5653;0.0000;0.0000;0.0000;6.0267
1331;-1.0056;1.4602;0.0000;0.0000;0.0000;4.2270
1332;-0.8957;1.4517;0.0000;0.0000;0.0000;4.9672
1333;-0.7709;1.4484;0.0000;0.0000;0.0000;5.9628
1334;-0.6381;1.4461;0.0000;0.0000;0.0000;5.1426
1335;-0.5012;1.4440;0.0000;0.0000;0.0000;5.6645
1336;-0.3624;1.4416;0.0000;0.0000;0.0000;6.3189
1337;-0.2229;1.4394;0.0000;0.0000;0.0000;5.7445
1338;-0.0828;1.4377;0.0000;0.0000;0.0000;4.7896
1339;0.0582;1.4365;0.0000;0.0000;0.0000;3.8653
1340;0.1999;1.4361;0.0000;0.0000;0.0000;4.3766
1341;0.3417;1.4359;0.0000;0.0000;0.0000;6.3263
1342;0.4837;1.4359;0.0000;0.0000;0.0000;7.0254
1343;0.6255;1.4358;0.0000;0.0000;0.0000;7.0354
1344;0.7667;1.4357;0.0000;0.0000;0.0000;6.7647
1345;0.9064;1.4352;0.0000;0.0000;0.0000;5.1785
1346;1.0423;1.4349;0.0000;0.0000;0.0000;4.8876
1347;1.1707;1.4370;0.0000;0.0000;0.0000;6.1470
1348;1.2844;1.4494;0.0000;0.0000;0.0000;5.2253
1349;-0.9753;1.3296;0.0000;0.0000;0.0000;4.4602
1350;-0.8426;1.3242;0.0000;0.0000;0.0000;4.6041
1351;-0.7087;1.3220;0.0000;0.0000;0.0000;5.3679
1352;-0.5723;1.3200;0.0000;0.0000;0.0000;5.4099
1353;-0.4338;1.3178;0.0000;0.0000;0.0000;6.3272
1354;-0.2943;1.3155;0.0000;0.0000;0.0000;6.2585
1355;-0.1540;1.3140;0.0000;0.0000;0.0000;5.3311
1356;-0.0129;1.3132;0.0000;0.0000;0.0000;5.5162
1357;0.1289;1.3128;0.0000;0.0000;0.0000;5.4344
1358;0.2708;1.3126;0.0000;0.0000;0.0000;6.3806
1359;0.4126;1.3125;0.0000;0.0000;0.0000;6.6684
1360;0.5545;1.3125;0.0000;0.0000;0.0000;6.5831
1361;0.6962;1.3124;0.0000;0.0000;0.0000;6.4965
1362;0.8372;1.3121;0.0000;0.0000;0.0000;6.9243
1363;0.9768;1.3116;0.0000;0.0000;0.0000;5.0608
1364;1.1146;1.3119;0.0000;0.0000;0.0000;5.1304
1365;1.2532;1.3177;0.0000;0.0000;0.0000;5.6623
1366;-1.0097;1.2010;0.0000;0.0000;0.0000;4.9326
1367;-0.9010;1.1991;0.0000;0.0000;0.0000;5.2358
1368;-0.7752;1.1975;0.0000;0.0000;0.0000;4.9873
1369;-0.6417;1.1959;0.0000;0.0000;0.0000;5.9313
1370;-0.5047;1.1938;0.0000;0.0000;0.0000;6.7752
1371;-0.3655;1.1918;0.0000;0.0000;0.0000;6.7122
1372;-0.2250;1.1904;0.0000;0.0000;0.0000;5.1868
1373;-0.0838;1.1899;0.0000;0.0000;0.0000;5.3574
1374;0.0579;1.1895;0.0000;0.0000;0.0000;5.8941
1375;0.1998;1.1893;0.0000;0.0000;0.0000;5.8473
1376;0.3417;1.1892;0.0000;0.0000;0.0000;6.8031
1377;0.4835;1.1892;0.0000;0.0000;0.0000;6.8412
1378;0.6254;1.1891;0.0000;0.0000;0.0000;5.6780
1379;0.7668;1.1889;0.0000;0.0000;0.0000;6.3255
1380;0.9070;1.1886;0.0000;0.0000;0.0000;6.0976
1381;1.0445;1.1884;0.0000;0.0000;0.0000;5.2432
1382;1.1759;1.1892;0.0000;0.0000;0.0000;5.2034
1383;1.2915;1.1892;0.0000;0.0000;0.0000;5.5394
1384;-0.9756;1.0689;0.0000;0.0000;0.0000;5.0949
1385;-0.8449;1.0715;0.0000;0.0000;0.0000;4.5114
1386;-0.7115;1.0713;0.0000;0.0000;0.0000;4.7931
1387;-0.5752;1.0696;0.0000;0.0000;0.0000;6.3815
1388;-0.4363;1.0680;0.0000;0.0000;0.0000;6.1570
1389;-0.2961;1.0670;0.0000;0.0000;0.0000;5.7638
1390;-0.1548;1.0665;0.0000;0.0000;0.0000;5.0608
1391;-0.0131;1.0662;0.0000;0.0000;0.0000;4.7913
1392;0.1288;1.0661;0.0000;0.0000;0.0000;5.8093
1393;0.2707;1.0659;0.0000;0.0000;0.0000;6.2913
1394;0.4126;1.0659;0.0000;0.0000;0.0000;6.6098
1395;0.5544;1.0658;0.0000;0.0000;0.0000;5.7542
1396;0.6961;1.0657;0.0000;0.0000;0.0000;4.6820
1397;0.8373;1.0655;0.0000;0.0000;0.0000;4.9046
1398;0.9774;1.0653;0.0000;0.0000;0.0000;5.1588
1399;1.1161;1.0654;0.0000;0.0000;0.0000;5.7822
1400;1.2557;1.0629;0.0000;0.0000;0.0000;5.9252
1401;-1.0069;0.9357;0.0000;0.0000;0.0000;4.7813
1402;-0.9019;0.9417;0.0000;0.0000;0.0000;4.5359
1403;-0.7777;0.9452;0.0000;0.0000;0.0000;4.9379
1404;-0.6446;0.9450;0.0000;0.0000;0.0000;5.1032
1405;-0.5068;0.9444;0.0000;0.0000;0.0000;4.0039
1406;-0.3668;0.9435;0.0000;0.0000;0.0000;3.7428
1407;-0.2258;0.9432;0.0000;0.0000;0.0000;4.7209
1408;-0.0841;0.9429;0.0000;0.0000;0.0000;5.3303
1409;0.0578;0.9427;0.0000;0.0000;0.0000;5.2476
1410;0.1997;0.9426;0.0000;0.0000;0.0000;5.8605
1411;0.3416;0.9425;0.0000;0.0000;0.0000;5.9554
1412;0.4835;0.9425;0.0000;0.0000;0.0000;5.8613
1413;0.6252;0.9424;0.0000;0.0000;0.0000;5.6251
1414;0.7666;0.9423;0.0000;0.0000;0.0000;3.8325
1415;0.9068;0.9421;0.0000;0.0000;0.0000;4.4458
1416;1.0438;0.9421;0.0000;0.0000;0.0000;5.7795
1417;1.1739;0.9414;0.0000;0.0000;0.0000;5.0354
1418;1.2898;0.9335;0.0000;0.0000;0.0000;5.1129
1419;-0.9820;0.8065;0.0000;0.0000;0.0000;5.4751
1420;-0.8505;0.8175;0.0000;0.0000;0.0000;5.9007
1421;-0.7158;0.8196;0.0000;0.0000;0.0000;5.9943
1422;-0.5778;0.8201;0.0000;0.0000;0.0000;4.5621
1423;-0.4375;0.8201;0.0000;0.0000;0.0000;2.7559
1424;-0.2966;0.8199;0.0000;0.0000;0.0000;3.7708
1425;-0.1550;0.8196;0.0000;0.0000;0.0000;6.5083
1426;-0.0131;0.8194;0.0000;0.0000;0.0000;5.7734
1427;0.1287;0.8193;0.0000;0.0000;0.0000;4.5748
1428;0.2706;0.8192;0.0000;0.0000;0.0000;5.1229
1429;0.4125;0.8191;0.0000;0.0000;0.0000;5.9248
1430;0.5544;0.8192;0.0000;0.0000;0.0000;6.3810
1431;0.6960;0.8192;0.0000;0.0000;0.0000;4.4790
1432;0.8370;0.8190;0.0000;0.0000;0.0000;3.2905
1433;0.9764;0.8186;0.0000;0.0000;0.0000;4.8360
1434;1.1130;0.8180;0.0000;0.0000;0.0000;6.0752
1435;1.2483;0.8154;0.0000;0.0000;0.0000;4.3587
1436;-0.9325;0.6970;0.0000;0.0000;0.0000;5.4563
1437;-0.7901;0.6951;0.0000;0.0000;0.0000;6.0114
1438;-0.6498;0.6959;0.0000;0.0000;0.0000;5.8364
1439;-0.5092;0.6962;0.0000;0.0000;0.0000;4.4024
1440;-0.3676;0.6964;0.0000;0.0000;0.0000;4.4099
1441;-0.2259;0.6963;0.0000;0.0000;0.0000;4.7270
1442;-0.0841;0.6961;0.0000;0.0000;0.0000;4.5407
1443;0.0577;0.6961;0.0000;0.0000;0.0000;4.3014
1444;0.1996;0.6960;0.0000;0.0000;0.0000;5.0971
1445;0.3414;0.6958;0.0000;0.0000;0.0000;5.6527
1446;0.4834;0.6959;0.0000;0.0000;0.0000;5.3784
1447;0.6253;0.6959;0.0000;0.0000;0.0000;4.9996
1448;0.7668;0.6959;0.0000;0.0000;0.0000;4.0669
1449;0.9069;0.6955;0.0000;0.0000;0.0000;4.8920
1450;1.0442;0.6950;0.0000;0.0000;0.0000;6.4541
1451;1.1769;0.6949;0.0000;0.0000;0.0000;6.1855
1452;1.3038;0.6959;0.0000;0.0000;0.0000;4.7489
1453;-0.9918;0.5926;0.0000;0.0000;0.0000;5.6544
1454;-0.8602;0.5721;0.0000;0.0000;0.0000;5.1255
1455;-0.7210;0.5718;0.0000;0.0000;0.0000;6.4208
1456;-0.5801;0.5725;0.0000;0.0000;0.0000;7.0140
1457;-0.4387;0.5729;0.0000;0.0000;0.0000;6.4278
1458;-0.2969;0.5729;0.0000;0.0000;0.0000;4.8556
1459;-0.1551;0.5729;0.0000;0.0000;0.0000;4.9913
1460;-0.0133;0.5728;0.0000;0.0000;0.0000;4.7502
1461;0.1286;0.5727;0.0000;0.0000;0.0000;4.5223
1462;0.2705;0.5726;0.0000;0.0000;0.0000;6.2388
1463;0.4124;0.5725;0.0000;0.0000;0.0000;6.3163
1464;0.5543;0.5726;0.0000;0.0000;0.0000;6.2218
1465;0.6962;0.5726;0.0000;0.0000;0.0000;5.2218
1466;0.8372;0.5723;0.0000;0.0000;0.0000;4.5586
1467;0.9767;0.5718;0.0000;0.0000;0.0000;6.0621
1468;1.1137;0.5718;0.0000;0.0000;0.0000;7.0490
1469;1.2499;0.5754;0.0000;0.0000;0.0000;4.8513
1470;-0.9509;0.4551;0.0000;0.0000;0.0000;3.2327
1471;-0.7986;0.4492;0.0000;0.0000;0.0000;4.1601
1472;-0.6532;0.4493;0.0000;0.0000;0.0000;6.5241
1473;-0.5103;0.4496;0.0000;0.0000;0.0000;6.5079
1474;-0.3680;0.4496;0.0000;0.0000;0.0000;6.0941
1475;-0.2261;0.4496;0.0000;0.0000;0.0000;5.7673
1476;-0.0842;0.4495;0.0000;0.0000;0.0000;5.2227
1477;0.0577;0.4494;0.0000;0.0000;0.0000;4.9790
1478;0.1996;0.4493;0.0000;0.0000;0.0000;5.8806
1479;0.3414;0.4492;0.0000;0.0000;0.0000;6.6811
1480;0.4834;0.4492;0.0000;0.0000;0.0000;6.1938
1481;0.6252;0.4492;0.0000;0.0000;0.0000;5.3635
1482;0.7666;0.4489;0.0000;0.0000;0.0000;5.8202
1483;0.9069;0.4485;0.0000;0.0000;0.0000;7.0297
1484;1.0444;0.4479;0.0000;0.0000;0.0000;6.7642
1485;1.1760;0.4488;0.0000;0.0000;0.0000;5.6894
1486;1.2938;0.4587;0.0000;0.0000;0.0000;4.7498
1487;-0.9901;0.3248;0.0000;0.0000;0.0000;5.0984
1488;-0.8639;0.3264;0.0000;0.0000;0.0000;4.8416
1489;-0.7233;0.3265;0.0000;0.0000;0.0000;5.6794
1490;-0.5812;0.3264;0.0000;0.0000;0.0000;6.4637
1491;-0.4390;0.3263;0.0000;0.0000;0.0000;6.3906
1492;-0.2970;0.3262;0.0000;0.0000;0.0000;6.3504
1493;-0.1551;0.3262;0.0000;0.0000;0.0000;6.5241
1494;-0.0132;0.3260;0.0000;0.0000;0.0000;6.3832
1495;0.1287;0.3259;0.0000;0.0000;0.0000;6.8924
1496;0.2705;0.3259;0.0000;0.0000;0.0000;6.4563
1497;0.4124;0.3258;0.0000;0.0000;0.0000;5.8871
1498;0.5543;0.3258;0.0000;0.0000;0.0000;5.9274
1499;0.6961;0.3257;0.0000;0.0000;0.0000;5.9217
1500;0.8373;0.3254;0.0000;0.0000;0.0000;6.8338
1501;0.9780;0.3250;0.0000;0.0000;0.0000;7.0319
1502;1.1183;0.3247;0.0000;0.0000;0.0000;6.5669
1503;1.2609;0.3286;0.0000;0.0000;0.0000;6.0757
1504;-0.9469;0.1960;0.0000;0.0000;0.0000;4.6207
1505;-0.7972;0.2032;0.0000;0.0000;0.0000;3.8583
1506;-0.6527;0.2034;0.0000;0.0000;0.0000;5.1015
1507;-0.5101;0.2031;0.0000;0.0000;0.0000;5.6632
1508;-0.3680;0.2029;0.0000;0.0000;0.0000;6.5442
1509;-0.2261;0.2028;0.0000;0.0000;0.0000;6.1395
1510;-0.0842;0.2027;0.0000;0.0000;0.0000;6.1321
1511;0.0577;0.2026;0.0000;0.0000;0.0000;5.9339
1512;0.1996;0.2026;0.0000;0.0000;0.0000;6.0311
1513;0.3415;0.2025;0.0000;0.0000;0.0000;6.9545
1514;0.4834;0.2025;0.0000;0.0000;0.0000;6.0013
1515;0.6251;0.2024;0.0000;0.0000;0.0000;5.6680
1516;0.7667;0.2023;0.0000;0.0000;0.0000;6.8600
1517;0.9075;0.2021;0.0000;0.0000;0.0000;7.0092
1518;1.0465;0.2018;0.0000;0.0000;0.0000;5.5634
1519;1.1810;0.2013;0.0000;0.0000;0.0000;5.7152
1520;1.3000;0.2025;0.0000;0.0000;0.0000;5.9361
1521;-0.9822;0.0625;0.0000;0.0000;0.0000;3.4856
1522;-0.8574;0.0776;0.0000;0.0000;0.0000;4.5136
1523;-0.7204;0.0801;0.0000;0.0000;0.0000;5.1829
1524;-0.5800;0.0799;0.0000;0.0000;0.0000;5.1934
1525;-0.4386;0.0797;0.0000;0.0000;0.0000;4.6312
1526;-0.2969;0.0796;0.0000;0.0000;0.0000;5.6133
1527;-0.1552;0.0794;0.0000;0.0000;0.0000;5.4549
1528;-0.0133;0.0794;0.0000;0.0000;0.0000;5.0910
1529;0.1286;0.0793;0.0000;0.0000;0.0000;6.3058
1530;0.2705;0.0791;0.0000;0.0000;0.0000;6.2542
1531;0.4124;0.0791;0.0000;0.0000;0.0000;6.5494
1532;0.5543;0.0791;0.0000;0.0000;0.0000;6.7082
1533;0.6961;0.0791;0.0000;0.0000;0.0000;5.9917
1534;0.8375;0.0790;0.0000;0.0000;0.0000;6.5363
1535;0.9783;0.0788;0.0000;0.0000;0.0000;5.3570
1536;1.1189;0.0783;0.0000;0.0000;0.0000;5.7760
1537;1.2622;0.0732;0.0000;0.0000;0.0000;5.9856
1538;-0.9346;-0.0514;0.0000;0.0000;0.0000;3.9501
1539;-0.7916;-0.0447;0.0000;0.0000;0.0000;5.2721
1540;-0.6506;-0.0437;0.0000;0.0000;0.0000;5.6360
1541;-0.5092;-0.0437;0.0000;0.0000;0.0000;5.5796
1542;-0.3677;-0.0438;0.0000;0.0000;0.0000;4.9252
1543;-0.2260;-0.0439;0.0000;0.0000;0.0000;5.2918
1544;-0.0842;-0.0440;0.0000;0.0000;0.0000;6.0381
1545;0.0576;-0.0440;0.0000;0.0000;0.0000;6.0932
1546;0.1995;-0.0442;0.0000;0.0000;0.0000;5.3775
1547;0.3414;-0.0443;0.0000;0.0000;0.0000;6.1693
1548;0.4833;-0.0442;0.0000;0.0000;0.0000;6.9571
1549;0.6252;-0.0442;0.0000;0.0000;0.0000;6.1435
1550;0.7667;-0.0443;0.0000;0.0000;0.0000;6.0862
1551;0.9073;-0.0444;0.0000;0.0000;0.0000;5.5577
1552;1.0455;-0.0447;0.0000;0.0000;0.0000;3.9077
1553;1.1781;-0.0469;0.0000;0.0000;0.0000;4.8045
1554;1.2973;-0.0593;0.0000;0.0000;0.0000;5.2638
1555;-0.9935;-0.1736;0.0000;0.0000;0.0000;4.3696
1556;-0.8580;-0.1688;0.0000;0.0000;0.0000;6.4952
1557;-0.7197;-0.1674;0.0000;0.0000;0.0000;6.1312
1558;-0.5794;-0.1672;0.0000;0.0000;0.0000;6.4326
1559;-0.4383;-0.1673;0.0000;0.0000;0.0000;5.3316
1560;-0.2968;-0.1673;0.0000;0.0000;0.0000;4.5302
1561;-0.1551;-0.1674;0.0000;0.0000;0.0000;5.3530
1562;-0.0133;-0.1674;0.0000;0.0000;0.0000;6.0599
1563;0.1286;-0.1675;0.0000;0.0000;0.0000;7.0717
1564;0.2705;-0.1676;0.0000;0.0000;0.0000;6.6505
1565;0.4124;-0.1676;0.0000;0.0000;0.0000;6.2594
1566;0.5542;-0.1676;0.0000;0.0000;0.0000;6.2397
1567;0.6960;-0.1676;0.0000;0.0000;0.0000;5.6374
1568;0.8373;-0.1678;0.0000;0.0000;0.0000;5.4164
1569;0.9776;-0.1682;0.0000;0.0000;0.0000;4.7581
1570;1.1161;-0.1695;0.0000;0.0000;0.0000;5.2778
1571;1.2547;-0.1752;0.0000;0.0000;0.0000;5.1168
1572;-0.9330;-0.2901;0.0000;0.0000;0.0000;5.0009
1573;-0.7907;-0.2911;0.0000;0.0000;0.0000;6.1264
1574;-0.6500;-0.2907;0.0000;0.0000;0.0000;7.3285
1575;-0.5090;-0.2908;0.0000;0.0000;0.0000;7.1960
1576;-0.3675;-0.2909;0.0000;0.0000;0.0000;6.2633
1577;-0.2259;-0.2907;0.0000;0.0000;0.0000;6.2638
1578;-0.0842;-0.2908;0.0000;0.0000;0.0000;6.9357
1579;0.0576;-0.2909;0.0000;0.0000;0.0000;6.8679
1580;0.1995;-0.2910;0.0000;0.0000;0.0000;6.9348
1581;0.3415;-0.2909;0.0000;0.0000;0.0000;7.2572
1582;0.4833;-0.2909;0.0000;0.0000;0.0000;6.9291
1583;0.6252;-0.2909;0.0000;0.0000;0.0000;6.8154
1584;0.7668;-0.2911;0.0000;0.0000;0.0000;6.0892
1585;0.9076;-0.2914;0.0000;0.0000;0.0000;5.6002
1586;1.0464;-0.2921;0.0000;0.0000;0.0000;6.3123
1587;1.1819;-0.2936;0.0000;0.0000;0.0000;5.2065
1588;1.3129;-0.2973;0.0000;0.0000;0.0000;5.7139
1589;-0.9797;-0.4073;0.0000;0.0000;0.0000;4.5499
1590;-0.8551;-0.4150;0.0000;0.0000;0.0000;5.4125
1591;-0.7189;-0.4145;0.0000;0.0000;0.0000;6.8167
1592;-0.5792;-0.4143;0.0000;0.0000;0.0000;5.6159
1593;-0.4382;-0.4143;0.0000;0.0000;0.0000;6.0551
1594;-0.2967;-0.4141;0.0000;0.0000;0.0000;5.3281
1595;-0.1551;-0.4141;0.0000;0.0000;0.0000;5.1597
1596;-0.0133;-0.4142;0.0000;0.0000;0.0000;5.8749
1597;0.1287;-0.4143;0.0000;0.0000;0.0000;6.7253
1598;0.2706;-0.4143;0.0000;0.0000;0.0000;7.0429
1599;0.4124;-0.4143;0.0000;0.0000;0.0000;6.4466
1600;0.5543;-0.4143;0.0000;0.0000;0.0000;6.8898
1601;0.6961;-0.4144;0.0000;0.0000;0.0000;6.9409
1602;0.8375;-0.4145;0.0000;0.0000;0.0000;5.9606
1603;0.9779;-0.4150;0.0000;0.0000;0.0000;6.3574
1604;1.1172;-0.4158;0.0000;0.0000;0.0000;5.5429
1605;1.2569;-0.4147;0.0000;0.0000;0.0000;6.0796
1606;-0.9421;-0.5360;0.0000;0.0000;0.0000;4.7607
1607;-0.7934;-0.5372;0.0000;0.0000;0.0000;6.6487
1608;-0.6508;-0.5375;0.0000;0.0000;0.0000;6.3565
1609;-0.5092;-0.5376;0.0000;0.0000;0.0000;5.4948
1610;-0.3676;-0.5376;0.0000;0.0000;0.0000;5.6238
1611;-0.2259;-0.5375;0.0000;0.0000;0.0000;4.8456
1612;-0.0841;-0.5376;0.0000;0.0000;0.0000;5.4064
1613;0.0577;-0.5376;0.0000;0.0000;0.0000;6.4304
1614;0.1997;-0.5376;0.0000;0.0000;0.0000;7.0276
1615;0.3415;-0.5376;0.0000;0.0000;0.0000;5.9501
1616;0.4834;-0.5376;0.0000;0.0000;0.0000;6.5547
1617;0.6252;-0.5377;0.0000;0.0000;0.0000;6.9204
1618;0.7668;-0.5378;0.0000;0.0000;0.0000;6.4436
1619;0.9077;-0.5381;0.0000;0.0000;0.0000;6.4812
1620;1.0468;-0.5389;0.0000;0.0000;0.0000;6.2852
1621;1.1815;-0.5399;0.0000;0.0000;0.0000;5.9396
1622;1.3030;-0.5324;0.0000;0.0000;0.0000;5.5044
1623;-0.9761;-0.6643;0.0000;0.0000;0.0000;5.1986
1624;-0.8535;-0.6588;0.0000;0.0000;0.0000;5.7349
1625;-0.7182;-0.6602;0.0000;0.0000;0.0000;6.1684
1626;-0.5789;-0.6607;0.0000;0.0000;0.0000;5.8189
1627;-0.4381;-0.6610;0.0000;0.0000;0.0000;5.7423
1628;-0.2966;-0.6610;0.0000;0.0000;0.0000;5.8128
1629;-0.1549;-0.6610;0.0000;0.0000;0.0000;6.0442
1630;-0.0132;-0.6610;0.0000;0.0000;0.0000;7.1028
1631;0.1287;-0.6610;0.0000;0.0000;0.0000;7.5083
1632;0.2706;-0.6610;0.0000;0.0000;0.0000;6.3425
1633;0.4125;-0.6609;0.0000;0.0000;0.0000;5.8228
1634;0.5544;-0.6610;0.0000;0.0000;0.0000;6.2253
1635;0.6962;-0.6611;0.0000;0.0000;0.0000;6.0954
1636;0.8378;-0.6612;0.0000;0.0000;0.0000;5.3600
1637;0.9793;-0.6616;0.0000;0.0000;0.0000;5.6019
1638;1.1218;-0.6620;0.0000;0.0000;0.0000;5.2660
1639;1.2699;-0.6621;0.0000;0.0000;0.0000;5.8889
1640;-0.9293;-0.7827;0.0000;0.0000;0.0000;6.1137
1641;-0.7888;-0.7834;0.0000;0.0000;0.0000;5.6225
1642;-0.6491;-0.7841;0.0000;0.0000;0.0000;6.0140
1643;-0.5086;-0.7842;0.0000;0.0000;0.0000;6.4939
1644;-0.3674;-0.7844;0.0000;0.0000;0.0000;5.8749
1645;-0.2258;-0.7844;0.0000;0.0000;0.0000;6.1798
1646;-0.0840;-0.7843;0.0000;0.0000;0.0000;6.2935
1647;0.0578;-0.7844;0.0000;0.0000;0.0000;7.0074
1648;0.1997;-0.7844;0.0000;0.0000;0.0000;6.4978
1649;0.3416;-0.7844;0.0000;0.0000;0.0000;5.3084
1650;0.4834;-0.7844;0.0000;0.0000;0.0000;5.5236
1651;0.6253;-0.7845;0.0000;0.0000;0.0000;6.3950
1652;0.7669;-0.7845;0.0000;0.0000;0.0000;5.8338
1653;0.9081;-0.7847;0.0000;0.0000;0.0000;4.4663
1654;1.0479;-0.7848;0.0000;0.0000;0.0000;5.1859
1655;1.1841;-0.7840;0.0000;0.0000;0.0000;5.1640
1656;1.3089;-0.7940;0.0000;0.0000;0.0000;6.2205
1657;-0.9849;-0.8985;0.0000;0.0000;0.0000;7.1080
1658;-0.8535;-0.9052;0.0000;0.0000;0.0000;5.5464
1659;-0.7174;-0.9072;0.0000;0.0000;0.0000;5.5932
1660;-0.5784;-0.9076;0.0000;0.0000;0.0000;6.7117
1661;-0.4379;-0.9076;0.0000;0.0000;0.0000;7.0669
1662;-0.2966;-0.9077;0.0000;0.0000;0.0000;6.4374
1663;-0.1549;-0.9076;0.0000;0.0000;0.0000;5.7616
1664;-0.0131;-0.9077;0.0000;0.0000;0.0000;5.8994
1665;0.1288;-0.9078;0.0000;0.0000;0.0000;6.2699
1666;0.2706;-0.9078;0.0000;0.0000;0.0000;5.9213
1667;0.4125;-0.9078;0.0000;0.0000;0.0000;6.1247
1668;0.5543;-0.9079;0.0000;0.0000;0.0000;6.8434
1669;0.6961;-0.9079;0.0000;0.0000;0.0000;6.3128
1670;0.8378;-0.9079;0.0000;0.0000;0.0000;5.8329
1671;0.9790;-0.9081;0.0000;0.0000;0.0000;5.6457
1672;1.1197;-0.9085;0.0000;0.0000;0.0000;5.3736
1673;1.2605;-0.9088;0.0000;0.0000;0.0000;5.0258
1674;-0.9263;-1.0226;0.0000;0.0000;0.0000;5.6964
1675;-0.7871;-1.0295;0.0000;0.0000;0.0000;5.7349
1676;-0.6483;-1.0310;0.0000;0.0000;0.0000;5.5284
1677;-0.5082;-1.0311;0.0000;0.0000;0.0000;5.8863
1678;-0.3672;-1.0311;0.0000;0.0000;0.0000;5.6050
1679;-0.2256;-1.0311;0.0000;0.0000;0.0000;4.1903
1680;-0.0839;-1.0310;0.0000;0.0000;0.0000;4.8941
1681;0.0578;-1.0311;0.0000;0.0000;0.0000;5.8578
1682;0.1997;-1.0311;0.0000;0.0000;0.0000;6.5052
1683;0.3416;-1.0312;0.0000;0.0000;0.0000;6.1588
1684;0.4834;-1.0312;0.0000;0.0000;0.0000;6.3644
1685;0.6252;-1.0312;0.0000;0.0000;0.0000;6.5048
1686;0.7670;-1.0312;0.0000;0.0000;0.0000;5.9086
1687;0.9085;-1.0313;0.0000;0.0000;0.0000;5.8110
1688;1.0491;-1.0318;0.0000;0.0000;0.0000;5.7712
1689;1.1875;-1.0328;0.0000;0.0000;0.0000;4.1010
1690;1.3193;-1.0236;0.0000;0.0000;0.0000;4.7997
1691;-0.9684;-1.1375;0.0000;0.0000;0.0000;4.2581
1692;-0.8489;-1.1513;0.0000;0.0000;0.0000;4.8521
1693;-0.7158;-1.1542;0.0000;0.0000;0.0000;5.6872
1694;-0.5777;-1.1546;0.0000;0.0000;0.0000;4.9602
1695;-0.4376;-1.1546;0.0000;0.0000;0.0000;4.7983
1696;-0.2964;-1.1545;0.0000;0.0000;0.0000;5.1654
1697;-0.1548;-1.1544;0.0000;0.0000;0.0000;5.3539
1698;-0.0130;-1.1544;0.0000;0.0000;0.0000;6.1382
1699;0.1288;-1.1545;0.0000;0.0000;0.0000;6.2835
1700;0.2706;-1.1545;0.0000;0.0000;0.0000;6.4440
1701;0.4125;-1.1545;0.0000;0.0000;0.0000;6.3994
1702;0.5544;-1.1545;0.0000;0.0000;0.0000;5.9252
1703;0.6962;-1.1545;0.0000;0.0000;0.0000;6.6649
1704;0.8380;-1.1546;0.0000;0.0000;0.0000;6.2677
1705;0.9798;-1.1548;0.0000;0.0000;0.0000;5.6072
1706;1.1222;-1.1553;0.0000;0.0000;0.0000;5.3644
1707;1.2676;-1.1557;0.0000;0.0000;0.0000;5.4016
1708;-0.9324;-1.2703;0.0000;0.0000;0.0000;4.8797
1709;-0.7892;-1.2768;0.0000;0.0000;0.0000;6.5306
1710;-0.6488;-1.2779;0.0000;0.0000;0.0000;5.9790
1711;-0.5082;-1.2780;0.0000;0.0000;0.0000;5.2288
1712;-0.3672;-1.2779;0.0000;0.0000;0.0000;5.4724
1713;-0.2256;-1.2778;0.0000;0.0000;0.0000;5.8338
1714;-0.0838;-1.2779;0.0000;0.0000;0.0000;6.1706
1715;0.0579;-1.2779;0.0000;0.0000;0.0000;6.2550
1716;0.1997;-1.2779;0.0000;0.0000;0.0000;6.6584
1717;0.3416;-1.2778;0.0000;0.0000;0.0000;6.0604
1718;0.4835;-1.2779;0.0000;0.0000;0.0000;5.8661
1719;0.6253;-1.2778;0.0000;0.0000;0.0000;6.5862
1720;0.7672;-1.2779;0.0000;0.0000;0.0000;6.4663
1721;0.9089;-1.2780;0.0000;0.0000;0.0000;5.3513
1722;1.0499;-1.2782;0.0000;0.0000;0.0000;5.4921
1723;1.1891;-1.2785;0.0000;0.0000;0.0000;6.4646
1724;1.3219;-1.2887;0.0000;0.0000;0.0000;5.9405
1725;-0.9694;-1.3990;0.0000;0.0000;0.0000;7.0297
1726;-0.8508;-1.3994;0.0000;0.0000;0.0000;6.7778
1727;-0.7166;-1.4008;0.0000;0.0000;0.0000;6.6815
1728;-0.5780;-1.4012;0.0000;0.0000;0.0000;6.7038
1729;-0.4377;-1.4012;0.0000;0.0000;0.0000;5.6881
1730;-0.2965;-1.4013;0.0000;0.0000;0.0000;4.1934
1731;-0.1547;-1.4012;0.0000;0.0000;0.0000;4.0486
1732;-0.0129;-1.4012;0.0000;0.0000;0.0000;5.5919
1733;0.1288;-1.4012;0.0000;0.0000;0.0000;7.0836
1734;0.2707;-1.4012;0.0000;0.0000;0.0000;6.4007
1735;0.4125;-1.4012;0.0000;0.0000;0.0000;6.6995
1736;0.5544;-1.4012;0.0000;0.0000;0.0000;5.9926
1737;0.6962;-1.4012;0.0000;0.0000;0.0000;6.1129
1738;0.8382;-1.4013;0.0000;0.0000;0.0000;5.7747
1739;0.9800;-1.4014;0.0000;0.0000;0.0000;5.8211
1740;1.1216;-1.4019;0.0000;0.0000;0.0000;5.4431
1741;1.2644;-1.4034;0.0000;0.0000;0.0000;5.1557
1742;-0.9311;-1.5258;0.0000;0.0000;0.0000;6.2275
1743;-0.7885;-1.5237;0.0000;0.0000;0.0000;5.4983
1744;-0.6484;-1.5243;0.0000;0.0000;0.0000;6.2222
1745;-0.5080;-1.5245;0.0000;0.0000;0.0000;6.4969
1746;-0.3670;-1.5246;0.0000;0.0000;0.0000;5.1032
1747;-0.2255;-1.5246;0.0000;0.0000;0.0000;4.2235
1748;-0.0838;-1.5246;0.0000;0.0000;0.0000;4.2738
1749;0.0580;-1.5245;0.0000;0.0000;0.0000;6.2717
1750;0.1998;-1.5245;0.0000;0.0000;0.0000;6.9764
1751;0.3416;-1.5246;0.0000;0.0000;0.0000;6.6916
1752;0.4835;-1.5246;0.0000;0.0000;0.0000;5.6199
1753;0.6254;-1.5246;0.0000;0.0000;0.0000;6.0468
1754;0.7672;-1.5247;0.0000;0.0000;0.0000;6.4519
1755;0.9087;-1.5249;0.0000;0.0000;0.0000;5.0293
1756;1.0495;-1.5253;0.0000;0.0000;0.0000;4.8014
1757;1.1873;-1.5273;0.0000;0.0000;0.0000;4.7765
1758;1.3145;-1.5196;0.0000;0.0000;0.0000;3.5232
1759;-0.9638;-1.6550;0.0000;0.0000;0.0000;5.5022
1760;-0.8458;-1.6474;0.0000;0.0000;0.0000;5.1339
1761;-0.7144;-1.6475;0.0000;0.0000;0.0000;4.3605
1762;-0.5772;-1.6479;0.0000;0.0000;0.0000;5.0346
1763;-0.4372;-1.6479;0.0000;0.0000;0.0000;5.5735
1764;-0.2962;-1.6480;0.0000;0.0000;0.0000;5.3976
1765;-0.1547;-1.6480;0.0000;0.0000;0.0000;6.0258
1766;-0.0129;-1.6480;0.0000;0.0000;0.0000;7.1671
1767;0.1289;-1.6480;0.0000;0.0000;0.0000;6.7765
1768;0.2707;-1.6480;0.0000;0.0000;0.0000;7.2117
1769;0.4126;-1.6479;0.0000;0.0000;0.0000;5.5604
1770;0.5545;-1.6480;0.0000;0.0000;0.0000;5.2279
1771;0.6963;-1.6480;0.0000;0.0000;0.0000;6.0949
1772;0.8383;-1.6480;0.0000;0.0000;0.0000;5.3416
1773;0.9807;-1.6482;0.0000;0.0000;0.0000;5.2979
1774;1.1250;-1.6489;0.0000;0.0000;0.0000;5.4309
1775;1.2763;-1.6505;0.0000;0.0000;0.0000;4.7056
1776;-0.9196;-1.7729;0.0000;0.0000;0.0000;5.5932
1777;-0.7834;-1.7712;0.0000;0.0000;0.0000;3.3994
1778;-0.6465;-1.7713;0.0000;0.0000;0.0000;2.6107
1779;-0.5073;-1.7714;0.0000;0.0000;0.0000;4.2918
1780;-0.3667;-1.7713;0.0000;0.0000;0.0000;5.3692
1781;-0.2254;-1.7713;0.0000;0.0000;0.0000;5.4466
1782;-0.0838;-1.7714;0.0000;0.0000;0.0000;6.8640
1783;0.0580;-1.7714;0.0000;0.0000;0.0000;6.8311
1784;0.1999;-1.7714;0.0000;0.0000;0.0000;6.4755
1785;0.3417;-1.7714;0.0000;0.0000;0.0000;5.9414
1786;0.4835;-1.7714;0.0000;0.0000;0.0000;5.2555
1787;0.6254;-1.7714;0.0000;0.0000;0.0000;5.0862
1788;0.7672;-1.7713;0.0000;0.0000;0.0000;5.8801
1789;0.9088;-1.7713;0.0000;0.0000;0.0000;5.4934
1790;1.0498;-1.7714;0.0000;0.0000;0.0000;4.9991
1791;1.1881;-1.7717;0.0000;0.0000;0.0000;5.6667
1792;1.3154;-1.7811;0.0000;0.0000;0.0000;6.0171
1793;-0.9728;-1.8918;0.0000;0.0000;0.0000;5.8066
1794;-0.8461;-1.8937;0.0000;0.0000;0.0000;5.0761
1795;-0.7136;-1.8947;0.0000;0.0000;0.0000;3.7218
1796;-0.5765;-1.8948;0.0000;0.0000;0.0000;4.1089
1797;-0.4370;-1.8948;0.0000;0.0000;0.0000;5.2104
1798;-0.2960;-1.8947;0.0000;0.0000;0.0000;5.2152
1799;-0.1546;-1.8947;0.0000;0.0000;0.0000;5.6260
1800;-0.0129;-1.8947;0.0000;0.0000;0.0000;7.1045
1801;0.1290;-1.8947;0.0000;0.0000;0.0000;6.2227
1802;0.2708;-1.8947;0.0000;0.0000;0.0000;5.7410
1803;0.4126;-1.8948;0.0000;0.0000;0.0000;5.6785
1804;0.5544;-1.8948;0.0000;0.0000;0.0000;4.6846
1805;0.6963;-1.8948;0.0000;0.0000;0.0000;5.0486
1806;0.8383;-1.8948;0.0000;0.0000;0.0000;6.0709
1807;0.9802;-1.8948;0.0000;0.0000;0.0000;5.5595
1808;1.1225;-1.8951;0.0000;0.0000;0.0000;5.7747
1809;1.2673;-1.8974;0.0000;0.0000;0.0000;5.8548
1810;-0.9169;-2.0129;0.0000;0.0000;0.0000;6.3241
1811;-0.7818;-2.0174;0.0000;0.0000;0.0000;5.5927
1812;-0.6455;-2.0183;0.0000;0.0000;0.0000;5.6413
1813;-0.5068;-2.0183;0.0000;0.0000;0.0000;5.7314
1814;-0.3665;-2.0181;0.0000;0.0000;0.0000;6.3985
1815;-0.2253;-2.0181;0.0000;0.0000;0.0000;6.2253
1816;-0.0837;-2.0181;0.0000;0.0000;0.0000;6.6680
1817;0.0580;-2.0181;0.0000;0.0000;0.0000;5.8985
1818;0.1999;-2.0181;0.0000;0.0000;0.0000;6.2270
1819;0.3418;-2.0181;0.0000;0.0000;0.0000;5.8736
1820;0.4836;-2.0182;0.0000;0.0000;0.0000;5.3762
1821;0.6255;-2.0182;0.0000;0.0000;0.0000;5.2187
1822;0.7673;-2.0182;0.0000;0.0000;0.0000;5.6969
1823;0.9091;-2.0182;0.0000;0.0000;0.0000;6.1728
1824;1.0506;-2.0182;0.0000;0.0000;0.0000;6.1955
1825;1.1908;-2.0178;0.0000;0.0000;0.0000;5.2787
1826;1.3290;-2.0150;0.0000;0.0000;0.0000;5.5271
1827;-0.9578;-2.1302;0.0000;0.0000;0.0000;6.9011
1828;-0.8422;-2.1400;0.0000;0.0000;0.0000;6.7572
1829;-0.7122;-2.1419;0.0000;0.0000;0.0000;6.1452
1830;-0.5760;-2.1419;0.0000;0.0000;0.0000;5.8653
1831;-0.4367;-2.1417;0.0000;0.0000;0.0000;5.8766
1832;-0.2959;-2.1416;0.0000;0.0000;0.0000;6.5175
1833;-0.1545;-2.1415;0.0000;0.0000;0.0000;6.5381
1834;-0.0128;-2.1415;0.0000;0.0000;0.0000;6.9370
1835;0.1290;-2.1415;0.0000;0.0000;0.0000;6.4615
1836;0.2708;-2.1415;0.0000;0.0000;0.0000;5.5258
1837;0.4127;-2.1415;0.0000;0.0000;0.0000;5.2419
1838;0.5545;-2.1415;0.0000;0.0000;0.0000;5.1894
1839;0.6964;-2.1415;0.0000;0.0000;0.0000;6.3990
1840;0.8384;-2.1415;0.0000;0.0000;0.0000;6.6115
1841;0.9805;-2.1415;0.0000;0.0000;0.0000;5.8613
1842;1.1233;-2.1412;0.0000;0.0000;0.0000;5.4322
1843;1.2686;-2.1358;0.0000;0.0000;0.0000;4.8093
1844;-0.9233;-2.2601;0.0000;0.0000;0.0000;6.0337
1845;-0.7844;-2.2648;0.0000;0.0000;0.0000;6.6920
1846;-0.6464;-2.2653;0.0000;0.0000;0.0000;6.5122
1847;-0.5071;-2.2651;0.0000;0.0000;0.0000;5.3276
1848;-0.3666;-2.2649;0.0000;0.0000;0.0000;6.2524
1849;-0.2253;-2.2648;0.0000;0.0000;0.0000;6.5451
1850;-0.0837;-2.2649;0.0000;0.0000;0.0000;6.7997
1851;0.0581;-2.2649;0.0000;0.0000;0.0000;6.4759
1852;0.2000;-2.2649;0.0000;0.0000;0.0000;5.5389
1853;0.3418;-2.2648;0.0000;0.0000;0.0000;4.6706
1854;0.4836;-2.2648;0.0000;0.0000;0.0000;5.4838
1855;0.6254;-2.2648;0.0000;0.0000;0.0000;6.2030
1856;0.7673;-2.2648;0.0000;0.0000;0.0000;5.9641
1857;0.9092;-2.2649;0.0000;0.0000;0.0000;6.2262
1858;1.0507;-2.2648;0.0000;0.0000;0.0000;6.1890
1859;1.1901;-2.2636;0.0000;0.0000;0.0000;5.2021
1860;1.3173;-2.2497;0.0000;0.0000;0.0000;5.5503
1861;-0.9601;-2.3853;0.0000;0.0000;0.0000;6.1549
1862;-0.8445;-2.3880;0.0000;0.0000;0.0000;5.3736
1863;-0.7132;-2.3883;0.0000;0.0000;0.0000;6.3561
1864;-0.5763;-2.3884;0.0000;0.0000;0.0000;6.3626
1865;-0.4368;-2.3883;0.0000;0.0000;0.0000;6.0101
1866;-0.2960;-2.3882;0.0000;0.0000;0.0000;5.9003
1867;-0.1545;-2.3882;0.0000;0.0000;0.0000;6.5849
1868;-0.0128;-2.3882;0.0000;0.0000;0.0000;7.0783
1869;0.1290;-2.3882;0.0000;0.0000;0.0000;6.0831
1870;0.2708;-2.3882;0.0000;0.0000;0.0000;5.0696
1871;0.4127;-2.3881;0.0000;0.0000;0.0000;4.4755
1872;0.5545;-2.3881;0.0000;0.0000;0.0000;5.6181
1873;0.6965;-2.3881;0.0000;0.0000;0.0000;7.0337
1874;0.8386;-2.3881;0.0000;0.0000;0.0000;6.2721
1875;0.9815;-2.3877;0.0000;0.0000;0.0000;6.4506
1876;1.1272;-2.3863;0.0000;0.0000;0.0000;6.6689
1877;1.2813;-2.3826;0.0000;0.0000;0.0000;5.7922
1878;-0.9216;-2.5146;0.0000;0.0000;0.0000;4.9300
1879;-0.7834;-2.5116;0.0000;0.0000;0.0000;5.3421
1880;-0.6458;-2.5116;0.0000;0.0000;0.0000;6.6137
1881;-0.5068;-2.5117;0.0000;0.0000;0.0000;6.6715
1882;-0.3664;-2.5116;0.0000;0.0000;0.0000;5.4488
1883;-0.2252;-2.5115;0.0000;0.0000;0.0000;5.4663
1884;-0.0837;-2.5115;0.0000;0.0000;0.0000;6.2463
1885;0.0581;-2.5115;0.0000;0.0000;0.0000;6.9742
1886;0.2000;-2.5115;0.0000;0.0000;0.0000;6.1855
1887;0.3417;-2.5115;0.0000;0.0000;0.0000;4.3771
1888;0.4835;-2.5115;0.0000;0.0000;0.0000;4.5022
1889;0.6255;-2.5115;0.0000;0.0000;0.0000;6.1444
1890;0.7674;-2.5115;0.0000;0.0000;0.0000;5.8723
1891;0.9090;-2.5110;0.0000;0.0000;0.0000;6.3294
1892;1.0500;-2.5093;0.0000;0.0000;0.0000;6.1006
1893;1.1884;-2.5058;0.0000;0.0000;0.0000;6.0319
1894;1.3175;-2.5151;0.0000;0.0000;0.0000;5.5534
1895;-0.9518;-2.6456;0.0000;0.0000;0.0000;4.5962
1896;-0.8389;-2.6361;0.0000;0.0000;0.0000;4.7922
1897;-0.7106;-2.6349;0.0000;0.0000;0.0000;6.1627
1898;-0.5753;-2.6350;0.0000;0.0000;0.0000;6.5131
1899;-0.4364;-2.6350;0.0000;0.0000;0.0000;5.5004
1900;-0.2957;-2.6350;0.0000;0.0000;0.0000;5.2030
1901;-0.1544;-2.6349;0.0000;0.0000;0.0000;4.3023
1902;-0.0128;-2.6350;0.0000;0.0000;0.0000;4.7577
1903;0.1291;-2.6349;0.0000;0.0000;0.0000;5.4046
1904;0.2709;-2.6349;0.0000;0.0000;0.0000;5.5713
1905;0.4127;-2.6349;0.0000;0.0000;0.0000;4.1155
1906;0.5545;-2.6349;0.0000;0.0000;0.0000;4.4239
1907;0.6964;-2.6349;0.0000;0.0000;0.0000;5.4541
1908;0.8379;-2.6347;0.0000;0.0000;0.0000;5.2498
1909;0.9777;-2.6339;0.0000;0.0000;0.0000;6.5989
1910;1.1129;-2.6324;0.0000;0.0000;0.0000;5.8220
1911;1.2371;-2.6361;0.0000;0.0000;0.0000;6.3815
1912;1.3456;-2.6412;0.0000;0.0000;0.0000;5.8128
1913;-0.9102;-2.7632;0.0000;0.0000;0.0000;4.8968
1914;-0.7781;-2.7592;0.0000;0.0000;0.0000;4.9790
1915;-0.6437;-2.7586;0.0000;0.0000;0.0000;5.8539
1916;-0.5061;-2.7585;0.0000;0.0000;0.0000;5.2402
1917;-0.3662;-2.7584;0.0000;0.0000;0.0000;5.9335
1918;-0.2251;-2.7583;0.0000;0.0000;0.0000;5.8801
1919;-0.0836;-2.7584;0.0000;0.0000;0.0000;5.1260
1920;0.0582;-2.7584;0.0000;0.0000;0.0000;5.4781
1921;0.2000;-2.7584;0.0000;0.0000;0.0000;4.9829
1922;0.3418;-2.7584;0.0000;0.0000;0.0000;5.1387
1923;0.4836;-2.7583;0.0000;0.0000;0.0000;5.2480
1924;0.6254;-2.7582;0.0000;0.0000;0.0000;5.6146
1925;0.7671;-2.7582;0.0000;0.0000;0.0000;4.9606
1926;0.9078;-2.7579;0.0000;0.0000;0.0000;4.2962
1927;1.0456;-2.7575;0.0000;0.0000;0.0000;5.6697
1928;1.1785;-2.7582;0.0000;0.0000;0.0000;5.6457
1929;1.3100;-2.7660;0.0000;0.0000;0.0000;6.2095
1930;-0.9613;-2.8850;0.0000;0.0000;0.0000;6.2603
1931;-0.8392;-2.8824;0.0000;0.0000;0.0000;5.8053
1932;-0.7098;-2.8823;0.0000;0.0000;0.0000;5.9199
1933;-0.5747;-2.8820;0.0000;0.0000;0.0000;5.6457
1934;-0.4361;-2.8819;0.0000;0.0000;0.0000;6.6859
1935;-0.2957;-2.8818;0.0000;0.0000;0.0000;6.8854
1936;-0.1543;-2.8817;0.0000;0.0000;0.0000;6.1404
1937;-0.0127;-2.8818;0.0000;0.0000;0.0000;6.6496
1938;0.1290;-2.8818;0.0000;0.0000;0.0000;6.6724
1939;0.2708;-2.8818;0.0000;0.0000;0.0000;6.5529
1940;0.4127;-2.8817;0.0000;0.0000;0.0000;5.2043
1941;0.5546;-2.8817;0.0000;0.0000;0.0000;5.1925
1942;0.6962;-2.8816;0.0000;0.0000;0.0000;5.7677
1943;0.8373;-2.8816;0.0000;0.0000;0.0000;4.9243
1944;0.9761;-2.8816;0.0000;0.0000;0.0000;4.9366
1945;1.1090;-2.8818;0.0000;0.0000;0.0000;5.3661
1946;1.2323;-2.8827;0.0000;0.0000;0.0000;5.7130
1947;1.3419;-2.8975;0.0000;0.0000;0.0000;6.1107
1948;-0.9080;-3.0030;0.0000;0.0000;0.0000;6.7830
1949;-0.7770;-3.0055;0.0000;0.0000;0.0000;5.8084
1950;-0.6431;-3.0056;0.0000;0.0000;0.0000;4.9230
1951;-0.5057;-3.0054;0.0000;0.0000;0.0000;5.9746
1952;-0.3660;-3.0053;0.0000;0.0000;0.0000;6.7012
1953;-0.2250;-3.0052;0.0000;0.0000;0.0000;6.1220
1954;-0.0835;-3.0051;0.0000;0.0000;0.0000;5.8189
1955;0.0582;-3.0051;0.0000;0.0000;0.0000;6.7345
1956;0.2000;-3.0051;0.0000;0.0000;0.0000;6.2585
1957;0.3418;-3.0051;0.0000;0.0000;0.0000;5.8298
1958;0.4836;-3.0050;0.0000;0.0000;0.0000;5.4501
1959;0.6254;-3.0050;0.0000;0.0000;0.0000;5.7362
1960;0.7669;-3.0051;0.0000;0.0000;0.0000;6.1597
1961;0.9071;-3.0053;0.0000;0.0000;0.0000;6.0114
1962;1.0438;-3.0058;0.0000;0.0000;0.0000;5.7183
1963;1.1746;-3.0062;0.0000;0.0000;0.0000;5.8771
1964;1.2999;-3.0061;0.0000;0.0000;0.0000;5.0954
1965;-0.9478;-3.1220;0.0000;0.0000;0.0000;6.3836
1966;-0.8362;-3.1287;0.0000;0.0000;0.0000;6.1102
1967;-0.7092;-3.1295;0.0000;0.0000;0.0000;5.6964
1968;-0.5746;-3.1291;0.0000;0.0000;0.0000;5.1789
1969;-0.4360;-3.1288;0.0000;0.0000;0.0000;5.1177
1970;-0.2956;-3.1285;0.0000;0.0000;0.0000;5.7940
1971;-0.1543;-3.1284;0.0000;0.0000;0.0000;5.3565
1972;-0.0127;-3.1284;0.0000;0.0000;0.0000;6.8727
1973;0.1291;-3.1285;0.0000;0.0000;0.0000;6.5516
1974;0.2709;-3.1285;0.0000;0.0000;0.0000;5.8036
1975;0.4127;-3.1285;0.0000;0.0000;0.0000;6.3994
1976;0.5545;-3.1285;0.0000;0.0000;0.0000;6.2388
1977;0.6962;-3.1285;0.0000;0.0000;0.0000;6.3386
1978;0.8372;-3.1287;0.0000;0.0000;0.0000;5.6999
1979;0.9761;-3.1292;0.0000;0.0000;0.0000;5.5157
1980;1.1097;-3.1302;0.0000;0.0000;0.0000;4.9125
1981;1.2340;-3.1297;0.0000;0.0000;0.0000;4.8325
1982;1.3440;-3.1157;0.0000;0.0000;0.0000;4.2227
1983;-0.9150;-3.2495;0.0000;0.0000;0.0000;6.7962
1984;-0.7801;-3.2529;0.0000;0.0000;0.0000;6.8259
1985;-0.6444;-3.2530;0.0000;0.0000;0.0000;5.6067
1986;-0.5062;-3.2524;0.0000;0.0000;0.0000;4.8027
1987;-0.3662;-3.2520;0.0000;0.0000;0.0000;4.2703
1988;-0.2251;-3.2518;0.0000;0.0000;0.0000;4.0166
1989;-0.0836;-3.2517;0.0000;0.0000;0.0000;6.7970
1990;0.0582;-3.2518;0.0000;0.0000;0.0000;7.1684
1991;0.2000;-3.2518;0.0000;0.0000;0.0000;6.3360
1992;0.3418;-3.2519;0.0000;0.0000;0.0000;6.1251
1993;0.4836;-3.2519;0.0000;0.0000;0.0000;6.2940
1994;0.6254;-3.2519;0.0000;0.0000;0.0000;6.0127
1995;0.7669;-3.2520;0.0000;0.0000;0.0000;5.4851
1996;0.9076;-3.2522;0.0000;0.0000;0.0000;5.6024
1997;1.0459;-3.2530;0.0000;0.0000;0.0000;5.6592
1998;1.1810;-3.2532;0.0000;0.0000;0.0000;4.2647
1999;1.3152;-3.2466;0.0000;0.0000;0.0000;4.3377
2000;-0.9483;-3.3752;0.0000;0.0000;0.0000;5.9138
2001;-0.8382;-3.3770;0.0000;0.0000;0.0000;6.7122
2002;-0.7109;-3.3773;0.0000;0.0000;0.0000;6.4243
2003;-0.5756;-3.3764;0.0000;0.0000;0.0000;5.8994
2004;-0.4366;-3.3757;0.0000;0.0000;0.0000;4.9024
2005;-0.2958;-3.3753;0.0000;0.0000;0.0000;4.4882
2006;-0.1544;-3.3752;0.0000;0.0000;0.0000;6.1299
2007;-0.0127;-3.3751;0.0000;0.0000;0.0000;6.9051
2008;0.1291;-3.3751;0.0000;0.0000;0.0000;7.7336
2009;0.2709;-3.3752;0.0000;0.0000;0.0000;6.8801
2010;0.4127;-3.3752;0.0000;0.0000;0.0000;6.8255
2011;0.5545;-3.3752;0.0000;0.0000;0.0000;5.8233
2012;0.6963;-3.3753;0.0000;0.0000;0.0000;5.8828
2013;0.8375;-3.3754;0.0000;0.0000;0.0000;5.2441
2014;0.9771;-3.3758;0.0000;0.0000;0.0000;5.0109
2015;1.1128;-3.3763;0.0000;0.0000;0.0000;5.4773
2016;1.2407;-3.3752;0.0000;0.0000;0.0000;5.4974
2017;1.3518;-3.3743;0.0000;0.0000;0.0000;5.1111
2018;-0.9173;-3.5040;0.0000;0.0000;0.0000;6.0433
2019;-0.7847;-3.5033;0.0000;0.0000;0.0000;6.5927
2020;-0.6472;-3.5010;0.0000;0.0000;0.0000;6.0521
2021;-0.5075;-3.4995;0.0000;0.0000;0.0000;5.5367
2022;-0.3667;-3.4989;0.0000;0.0000;0.0000;5.7275
2023;-0.2253;-3.4986;0.0000;0.0000;0.0000;5.5989
2024;-0.0836;-3.4986;0.0000;0.0000;0.0000;6.7139
2025;0.0582;-3.4985;0.0000;0.0000;0.0000;7.1474
2026;0.2000;-3.4985;0.0000;0.0000;0.0000;7.2262
2027;0.3418;-3.4985;0.0000;0.0000;0.0000;6.4366
2028;0.4836;-3.4985;0.0000;0.0000;0.0000;6.4269
2029;0.6255;-3.4985;0.0000;0.0000;0.0000;6.8998
2030;0.7671;-3.4987;0.0000;0.0000;0.0000;5.1649
2031;0.9078;-3.4989;0.0000;0.0000;0.0000;4.2178
2032;1.0468;-3.4991;0.0000;0.0000;0.0000;5.7616
2033;1.1832;-3.4990;0.0000;0.0000;0.0000;5.9156
2034;1.3184;-3.5004;0.0000;0.0000;0.0000;5.7262
2035;-0.8723;-3.6244;0.0000;0.0000;0.0000;7.1247
2036;-0.7236;-3.6241;0.0000;0.0000;0.0000;6.6479
2037;-0.5802;-3.6231;0.0000;0.0000;0.0000;5.8088
2038;-0.4381;-3.6223;0.0000;0.0000;0.0000;6.4694
2039;-0.2964;-3.6220;0.0000;0.0000;0.0000;7.3163
2040;-0.1546;-3.6219;0.0000;0.0000;0.0000;7.0206
2041;-0.0127;-3.6219;0.0000;0.0000;0.0000;6.7200
2042;0.1291;-3.6219;0.0000;0.0000;0.0000;6.7537
2043;0.2709;-3.6219;0.0000;0.0000;0.0000;6.5669
2044;0.4127;-3.6219;0.0000;0.0000;0.0000;6.5665
2045;0.5546;-3.6219;0.0000;0.0000;0.0000;6.5564
2046;0.6963;-3.6219;0.0000;0.0000;0.0000;6.1321
2047;0.8375;-3.6220;0.0000;0.0000;0.0000;4.9904
2048;0.9771;-3.6223;0.0000;0.0000;0.0000;5.4759
2049;1.1124;-3.6223;0.0000;0.0000;0.0000;5.5923
2050;1.2394;-3.6227;0.0000;0.0000;0.0000;5.6850
2051;1.3507;-3.6288;0.0000;0.0000;0.0000;5.8793
2052;-0.9331;-3.7441;0.0000;0.0000;0.0000;5.7808
2053;-0.7935;-3.7448;0.0000;0.0000;0.0000;5.3163
2054;-0.6515;-3.7458;0.0000;0.0000;0.0000;5.0206
2055;-0.5094;-3.7456;0.0000;0.0000;0.0000;6.1409
2056;-0.3675;-3.7454;0.0000;0.0000;0.0000;6.9125
2057;-0.2256;-3.7452;0.0000;0.0000;0.0000;7.0687
2058;-0.0837;-3.7452;0.0000;0.0000;0.0000;7.2800
2059;0.0582;-3.7452;0.0000;0.0000;0.0000;6.7371
2060;0.2000;-3.7452;0.0000;0.0000;0.0000;6.7568
2061;0.3418;-3.7452;0.0000;0.0000;0.0000;6.8675
2062;0.4837;-3.7452;0.0000;0.0000;0.0000;6.3867
2063;0.6255;-3.7452;0.0000;0.0000;0.0000;5.9571
2064;0.7671;-3.7452;0.0000;0.0000;0.0000;5.4510
2065;0.9077;-3.7455;0.0000;0.0000;0.0000;5.1509
2066;1.0459;-3.7458;0.0000;0.0000;0.0000;5.3521
2067;1.1800;-3.7462;0.0000;0.0000;0.0000;5.5411
2068;1.3110;-3.7481;0.0000;0.0000;0.0000;5.9396
2069;-0.8700;-3.8638;0.0000;0.0000;0.0000;5.2870
2070;-0.7241;-3.8680;0.0000;0.0000;0.0000;5.3119
2071;-0.5809;-3.8687;0.0000;0.0000;0.0000;5.9195
2072;-0.4385;-3.8686;0.0000;0.0000;0.0000;6.4593
2073;-0.2965;-3.8687;0.0000;0.0000;0.0000;6.0354
2074;-0.1547;-3.8686;0.0000;0.0000;0.0000;6.3661
2075;-0.0128;-3.8686;0.0000;0.0000;0.0000;6.6671
2076;0.1291;-3.8686;0.0000;0.0000;0.0000;6.3780
2077;0.2709;-3.8686;0.0000;0.0000;0.0000;6.9917
2078;0.4127;-3.8686;0.0000;0.0000;0.0000;7.0376
2079;0.5546;-3.8686;0.0000;0.0000;0.0000;6.0424
2080;0.6964;-3.8686;0.0000;0.0000;0.0000;5.7485
2081;0.8376;-3.8687;0.0000;0.0000;0.0000;5.7183
2082;0.9770;-3.8690;0.0000;0.0000;0.0000;6.3080
2083;1.1126;-3.8694;0.0000;0.0000;0.0000;6.5910
2084;1.2418;-3.8690;0.0000;0.0000;0.0000;5.4672
2085;1.3638;-3.8673;0.0000;0.0000;0.0000;5.2708
2086;-0.9182;-3.9789;0.0000;0.0000;0.0000;6.2209
2087;-0.7898;-3.9908;0.0000;0.0000;0.0000;4.8447
2088;-0.6508;-3.9921;0.0000;0.0000;0.0000;5.4571
2089;-0.5093;-3.9921;0.0000;0.0000;0.0000;6.0971
2090;-0.3676;-3.9921;0.0000;0.0000;0.0000;4.9252
2091;-0.2256;-3.9921;0.0000;0.0000;0.0000;4.5547
2092;-0.0837;-3.9920;0.0000;0.0000;0.0000;6.2034
2093;0.0582;-3.9920;0.0000;0.0000;0.0000;6.3202
2094;0.2000;-3.9920;0.0000;0.0000;0.0000;6.0481
2095;0.3418;-3.9920;0.0000;0.0000;0.0000;6.0346
2096;0.4837;-3.9920;0.0000;0.0000;0.0000;5.6452
2097;0.6256;-3.9920;0.0000;0.0000;0.0000;4.7467
2098;0.7671;-3.9921;0.0000;0.0000;0.0000;5.3950
2099;0.9077;-3.9922;0.0000;0.0000;0.0000;6.7787
2100;1.0461;-3.9927;0.0000;0.0000;0.0000;6.8023
2101;1.1805;-3.9925;0.0000;0.0000;0.0000;6.5267
2102;1.3124;-3.9884;0.0000;0.0000;0.0000;5.7795
2103;-0.8787;-4.1112;0.0000;0.0000;0.0000;6.1177
2104;-0.7271;-4.1151;0.0000;0.0000;0.0000;6.0232
2105;-0.5818;-4.1154;0.0000;0.0000;0.0000;6.4178
2106;-0.4390;-4.1154;0.0000;0.0000;0.0000;5.1864
2107;-0.2968;-4.1154;0.0000;0.0000;0.0000;4.9108
2108;-0.1547;-4.1153;0.0000;0.0000;0.0000;6.0070
2109;-0.0128;-4.1154;0.0000;0.0000;0.0000;6.6986
2110;0.1291;-4.1154;0.0000;0.0000;0.0000;5.6264
2111;0.2709;-4.1153;0.0000;0.0000;0.0000;5.6557
2112;0.4128;-4.1153;0.0000;0.0000;0.0000;6.2336
2113;0.5547;-4.1153;0.0000;0.0000;0.0000;5.0971
2114;0.6965;-4.1154;0.0000;0.0000;0.0000;4.5862
2115;0.8376;-4.1155;0.0000;0.0000;0.0000;5.2655
2116;0.9772;-4.1159;0.0000;0.0000;0.0000;6.1960
2117;1.1129;-4.1165;0.0000;0.0000;0.0000;6.9221
2118;1.2409;-4.1153;0.0000;0.0000;0.0000;6.6404
2119;1.3540;-4.1057;0.0000;0.0000;0.0000;6.0420
2120;-0.9186;-4.2404;0.0000;0.0000;0.0000;5.8031
2121;-0.7921;-4.2387;0.0000;0.0000;0.0000;6.5017
2122;-0.6516;-4.2382;0.0000;0.0000;0.0000;5.9606
2123;-0.5096;-4.2384;0.0000;0.0000;0.0000;5.7095
2124;-0.3676;-4.2386;0.0000;0.0000;0.0000;6.7367
2125;-0.2256;-4.2386;0.0000;0.0000;0.0000;6.5853
2126;-0.0837;-4.2386;0.0000;0.0000;0.0000;7.2625
2127;0.0581;-4.2387;0.0000;0.0000;0.0000;7.0324
2128;0.2000;-4.2387;0.0000;0.0000;0.0000;6.4799
2129;0.3419;-4.2386;0.0000;0.0000;0.0000;6.6107
2130;0.4837;-4.2386;0.0000;0.0000;0.0000;5.9086
2131;0.6256;-4.2387;0.0000;0.0000;0.0000;5.3294
2132;0.7672;-4.2388;0.0000;0.0000;0.0000;5.6395
2133;0.9082;-4.2390;0.0000;0.0000;0.0000;6.0157
2134;1.0477;-4.2396;0.0000;0.0000;0.0000;5.5219
2135;1.1852;-4.2396;0.0000;0.0000;0.0000;5.5713
2136;1.3231;-4.2355;0.0000;0.0000;0.0000;6.1286
2137;-0.8751;-4.3685;0.0000;0.0000;0.0000;5.7734
2138;-0.7255;-4.3618;0.0000;0.0000;0.0000;5.9099
2139;-0.5812;-4.3615;0.0000;0.0000;0.0000;6.2082
2140;-0.4387;-4.3618;0.0000;0.0000;0.0000;6.3885
2141;-0.2966;-4.3619;0.0000;0.0000;0.0000;6.1597
2142;-0.1546;-4.3620;0.0000;0.0000;0.0000;6.1903
2143;-0.0127;-4.3620;0.0000;0.0000;0.0000;7.3154
2144;0.1291;-4.3620;0.0000;0.0000;0.0000;6.8364
2145;0.2710;-4.3620;0.0000;0.0000;0.0000;5.9129
2146;0.4128;-4.3620;0.0000;0.0000;0.0000;6.5013
2147;0.5546;-4.3620;0.0000;0.0000;0.0000;6.0433
2148;0.6964;-4.3621;0.0000;0.0000;0.0000;6.1632
2149;0.8378;-4.3622;0.0000;0.0000;0.0000;6.1474
2150;0.9779;-4.3625;0.0000;0.0000;0.0000;5.9825
2151;1.1150;-4.3628;0.0000;0.0000;0.0000;5.8714
2152;1.2458;-4.3628;0.0000;0.0000;0.0000;6.2752
2153;1.3608;-4.3607;0.0000;0.0000;0.0000;6.1710
2154;-0.9101;-4.5017;0.0000;0.0000;0.0000;6.9589
2155;-0.7855;-4.4872;0.0000;0.0000;0.0000;6.7970
2156;-0.6488;-4.4849;0.0000;0.0000;0.0000;6.3093
2157;-0.5085;-4.4850;0.0000;0.0000;0.0000;6.1492
2158;-0.3672;-4.4853;0.0000;0.0000;0.0000;7.1080
2159;-0.2255;-4.4853;0.0000;0.0000;0.0000;6.5455
2160;-0.0836;-4.4853;0.0000;0.0000;0.0000;6.1177
2161;0.0583;-4.4853;0.0000;0.0000;0.0000;5.6540
2162;0.2001;-4.4854;0.0000;0.0000;0.0000;5.7848
2163;0.3419;-4.4854;0.0000;0.0000;0.0000;6.4147
2164;0.4837;-4.4854;0.0000;0.0000;0.0000;5.9353
2165;0.6256;-4.4854;0.0000;0.0000;0.0000;6.2756
2166;0.7673;-4.4854;0.0000;0.0000;0.0000;5.8815
2167;0.9084;-4.4856;0.0000;0.0000;0.0000;4.5144
2168;1.0480;-4.4858;0.0000;0.0000;0.0000;4.1702
2169;1.1859;-4.4861;0.0000;0.0000;0.0000;5.1719
2170;1.3246;-4.4898;0.0000;0.0000;0.0000;5.9624
2171;-0.8627;-4.6160;0.0000;0.0000;0.0000;5.0892
2172;-0.7200;-4.6096;0.0000;0.0000;0.0000;4.5328
2173;-0.5791;-4.6086;0.0000;0.0000;0.0000;4.8386
2174;-0.4378;-4.6086;0.0000;0.0000;0.0000;6.1098
2175;-0.2963;-4.6087;0.0000;0.0000;0.0000;6.7003
2176;-0.1545;-4.6087;0.0000;0.0000;0.0000;7.0849
2177;-0.0126;-4.6087;0.0000;0.0000;0.0000;7.0171
2178;0.1292;-4.6087;0.0000;0.0000;0.0000;5.9226
2179;0.2710;-4.6088;0.0000;0.0000;0.0000;5.7213
2180;0.4129;-4.6088;0.0000;0.0000;0.0000;5.4969
2181;0.5548;-4.6087;0.0000;0.0000;0.0000;6.7367
2182;0.6965;-4.6088;0.0000;0.0000;0.0000;6.8718
2183;0.8378;-4.6088;0.0000;0.0000;0.0000;5.8885
2184;0.9777;-4.6090;0.0000;0.0000;0.0000;3.7909
2185;1.1141;-4.6093;0.0000;0.0000;0.0000;4.7060
2186;1.2434;-4.6109;0.0000;0.0000;0.0000;5.7616
2187;1.3582;-4.6211;0.0000;0.0000;0.0000;5.7826
2188;-0.9212;-4.7379;0.0000;0.0000;0.0000;3.5442
2189;-0.7861;-4.7338;0.0000;0.0000;0.0000;3.6807
2190;-0.6481;-4.7323;0.0000;0.0000;0.0000;4.2248
2191;-0.5080;-4.7320;0.0000;0.0000;0.0000;5.0057
2192;-0.3669;-4.7321;0.0000;0.0000;0.0000;6.9436
2193;-0.2254;-4.7321;0.0000;0.0000;0.0000;7.4965
2194;-0.0836;-4.7321;0.0000;0.0000;0.0000;7.2187
2195;0.0582;-4.7321;0.0000;0.0000;0.0000;6.0398
2196;0.2001;-4.7320;0.0000;0.0000;0.0000;4.8434
2197;0.3420;-4.7320;0.0000;0.0000;0.0000;4.5980
2198;0.4838;-4.7320;0.0000;0.0000;0.0000;5.8950
2199;0.6257;-4.7321;0.0000;0.0000;0.0000;6.5901
2200;0.7673;-4.7321;0.0000;0.0000;0.0000;6.8491
2201;0.9082;-4.7323;0.0000;0.0000;0.0000;6.6995
2202;1.0473;-4.7327;0.0000;0.0000;0.0000;6.1566
2203;1.1833;-4.7338;0.0000;0.0000;0.0000;5.7192
2204;1.3177;-4.7383;0.0000;0.0000;0.0000;5.2699
2205;-0.8610;-4.8549;0.0000;0.0000;0.0000;4.8368
2206;-0.7190;-4.8558;0.0000;0.0000;0.0000;5.4681
2207;-0.5785;-4.8555;0.0000;0.0000;0.0000;5.2235
2208;-0.4375;-4.8554;0.0000;0.0000;0.0000;5.9046
2209;-0.2961;-4.8554;0.0000;0.0000;0.0000;6.4042
2210;-0.1544;-4.8554;0.0000;0.0000;0.0000;6.2143
2211;-0.0127;-4.8554;0.0000;0.0000;0.0000;5.9646
2212;0.1292;-4.8554;0.0000;0.0000;0.0000;5.3701
2213;0.2711;-4.8554;0.0000;0.0000;0.0000;4.6745
2214;0.4129;-4.8554;0.0000;0.0000;0.0000;5.2205
2215;0.5548;-4.8554;0.0000;0.0000;0.0000;6.0962
2216;0.6965;-4.8554;0.0000;0.0000;0.0000;6.6107
2217;0.8378;-4.8555;0.0000;0.0000;0.0000;6.7362
2218;0.9780;-4.8559;0.0000;0.0000;0.0000;6.8998
2219;1.1151;-4.8565;0.0000;0.0000;0.0000;6.2887
2220;1.2471;-4.8576;0.0000;0.0000;0.0000;5.4383
2221;1.3731;-4.8605;0.0000;0.0000;0.0000;6.0503
2222;-0.9060;-4.9720;0.0000;0.0000;0.0000;6.0704
2223;-0.7827;-4.9795;0.0000;0.0000;0.0000;6.6527
2224;-0.6469;-4.9791;0.0000;0.0000;0.0000;6.9716
2225;-0.5075;-4.9789;0.0000;0.0000;0.0000;7.0105
2226;-0.3667;-4.9788;0.0000;0.0000;0.0000;6.3473
2227;-0.2252;-4.9788;0.0000;0.0000;0.0000;5.6619
2228;-0.0836;-4.9788;0.0000;0.0000;0.0000;4.5468
2229;0.0582;-4.9787;0.0000;0.0000;0.0000;5.8224
2230;0.2001;-4.9788;0.0000;0.0000;0.0000;5.0722
2231;0.3420;-4.9789;0.0000;0.0000;0.0000;3.8325
2232;0.4839;-4.9788;0.0000;0.0000;0.0000;5.2043
2233;0.6257;-4.9788;0.0000;0.0000;0.0000;5.9243
2234;0.7673;-4.9789;0.0000;0.0000;0.0000;5.6912
2235;0.9083;-4.9791;0.0000;0.0000;0.0000;5.5656
2236;1.0477;-4.9796;0.0000;0.0000;0.0000;5.6969
2237;1.1844;-4.9801;0.0000;0.0000;0.0000;5.8342
2238;1.3199;-4.9787;0.0000;0.0000;0.0000;6.1435
2239;-0.8693;-5.1011;0.0000;0.0000;0.0000;5.6474
2240;-0.7212;-5.1020;0.0000;0.0000;0.0000;6.5481
2241;-0.5789;-5.1023;0.0000;0.0000;0.0000;6.3985
2242;-0.4376;-5.1021;0.0000;0.0000;0.0000;6.6916
2243;-0.2961;-5.1021;0.0000;0.0000;0.0000;6.7892
2244;-0.1544;-5.1022;0.0000;0.0000;0.0000;5.9269
2245;-0.0126;-5.1022;0.0000;0.0000;0.0000;5.5577
2246;0.1292;-5.1022;0.0000;0.0000;0.0000;6.3080
2247;0.2711;-5.1022;0.0000;0.0000;0.0000;5.5647
2248;0.4129;-5.1023;0.0000;0.0000;0.0000;5.6754
2249;0.5548;-5.1022;0.0000;0.0000;0.0000;6.4864
2250;0.6966;-5.1022;0.0000;0.0000;0.0000;5.6990
2251;0.8380;-5.1024;0.0000;0.0000;0.0000;5.2349
2252;0.9783;-5.1028;0.0000;0.0000;0.0000;5.6907
2253;1.1155;-5.1037;0.0000;0.0000;0.0000;6.3027
2254;1.2464;-5.1039;0.0000;0.0000;0.0000;6.9558
2255;1.3637;-5.0969;0.0000;0.0000;0.0000;6.1588
2256;-0.9041;-5.2284;0.0000;0.0000;0.0000;5.5989
2257;-0.7814;-5.2239;0.0000;0.0000;0.0000;6.1514
2258;-0.6464;-5.2253;0.0000;0.0000;0.0000;6.7397
2259;-0.5072;-5.2257;0.0000;0.0000;0.0000;7.0459
2260;-0.3666;-5.2258;0.0000;0.0000;0.0000;7.2003
2261;-0.2251;-5.2258;0.0000;0.0000;0.0000;7.2353
2262;-0.0834;-5.2258;0.0000;0.0000;0.0000;6.9777
2263;0.0584;-5.2257;0.0000;0.0000;0.0000;6.7756
2264;0.2002;-5.2258;0.0000;0.0000;0.0000;6.4567
2265;0.3421;-5.2259;0.0000;0.0000;0.0000;5.0936
2266;0.4840;-5.2259;0.0000;0.0000;0.0000;4.3460
2267;0.6258;-5.2258;0.0000;0.0000;0.0000;5.6479
2268;0.7675;-5.2258;0.0000;0.0000;0.0000;5.7122
2269;0.9089;-5.2261;0.0000;0.0000;0.0000;5.8867
2270;1.0493;-5.2267;0.0000;0.0000;0.0000;6.3154
2271;1.1890;-5.2274;0.0000;0.0000;0.0000;6.7878
2272;1.3311;-5.2256;0.0000;0.0000;0.0000;6.2651
2273;-0.8573;-5.3478;0.0000;0.0000;0.0000;5.9353
2274;-0.7171;-5.3491;0.0000;0.0000;0.0000;6.0464
2275;-0.5773;-5.3495;0.0000;0.0000;0.0000;6.7865
2276;-0.4368;-5.3496;0.0000;0.0000;0.0000;6.5761
2277;-0.2955;-5.3496;0.0000;0.0000;0.0000;6.9746
2278;-0.1540;-5.3496;0.0000;0.0000;0.0000;7.2275
2279;-0.0122;-5.3496;0.0000;0.0000;0.0000;6.7992
2280;0.1296;-5.3497;0.0000;0.0000;0.0000;7.3241
2281;0.2715;-5.3497;0.0000;0.0000;0.0000;7.1903
2282;0.4134;-5.3498;0.0000;0.0000;0.0000;6.0556
2283;0.5552;-5.3499;0.0000;0.0000;0.0000;6.1317
2284;0.6970;-5.3499;0.0000;0.0000;0.0000;6.9453
2285;0.8385;-5.3501;0.0000;0.0000;0.0000;7.5346
2286;0.9792;-5.3503;0.0000;0.0000;0.0000;6.5381
2287;1.1174;-5.3508;0.0000;0.0000;0.0000;6.6693
2288;1.2505;-5.3518;0.0000;0.0000;0.0000;7.2450
2289;1.3679;-5.3526;0.0000;0.0000;0.0000;6.4217
2290;-0.9117;-5.4640;0.0000;0.0000;0.0000;6.7305
2291;-0.7814;-5.4726;0.0000;0.0000;0.0000;6.7043
2292;-0.6448;-5.4736;0.0000;0.0000;0.0000;6.9331
2293;-0.5054;-5.4737;0.0000;0.0000;0.0000;6.3911
2294;-0.3646;-5.4738;0.0000;0.0000;0.0000;5.6588
2295;-0.2233;-5.4739;0.0000;0.0000;0.0000;6.1094
2296;-0.0816;-5.4740;0.0000;0.0000;0.0000;7.5853
2297;0.0602;-5.4741;0.0000;0.0000;0.0000;6.8683
2298;0.2021;-5.4742;0.0000;0.0000;0.0000;6.8425
2299;0.3439;-5.4744;0.0000;0.0000;0.0000;6.5831
2300;0.4858;-5.4746;0.0000;0.0000;0.0000;6.0564
2301;0.6277;-5.4747;0.0000;0.0000;0.0000;6.9409
2302;0.7694;-5.4748;0.0000;0.0000;0.0000;7.4584
2303;0.9107;-5.4750;0.0000;0.0000;0.0000;6.5118
2304;1.0511;-5.4753;0.0000;0.0000;0.0000;6.0761
2305;1.1904;-5.4760;0.0000;0.0000;0.0000;5.6649
2306;1.3316;-5.4813;0.0000;0.0000;0.0000;6.2340
2307;-0.8532;-5.5941;0.0000;0.0000;0.0000;6.3456
2308;-0.7109;-5.5976;0.0000;0.0000;0.0000;5.7970
2309;-0.5704;-5.5982;0.0000;0.0000;0.0000;5.6623
2310;-0.4295;-5.5983;0.0000;0.0000;0.0000;5.2008
2311;-0.2881;-5.5985;0.0000;0.0000;0.0000;5.1527
2312;-0.1466;-5.5988;0.0000;0.0000;0.0000;6.9024
2313;-0.0049;-5.5991;0.0000;0.0000;0.0000;7.8946
2314;0.1370;-5.5993;0.0000;0.0000;0.0000;7.1662
2315;0.2789;-5.5995;0.0000;0.0000;0.0000;6.4484
2316;0.4207;-5.5998;0.0000;0.0000;0.0000;6.6155
2317;0.5627;-5.6001;0.0000;0.0000;0.0000;7.5665
2318;0.7045;-5.6003;0.0000;0.0000;0.0000;7.1562
2319;0.8459;-5.6006;0.0000;0.0000;0.0000;6.3972
2320;0.9862;-5.6010;0.0000;0.0000;0.0000;5.9799
2321;1.1234;-5.6018;0.0000;0.0000;0.0000;6.0529
2322;1.2534;-5.6038;0.0000;0.0000;0.0000;5.0862
2323;1.3678;-5.6118;0.0000;0.0000;0.0000;5.9978
2324;-0.8916;-5.7169;0.0000;0.0000;0.0000;5.9510
2325;-0.7621;-5.7203;0.0000;0.0000;0.0000;5.9554
2326;-0.6248;-5.7219;0.0000;0.0000;0.0000;4.5297
2327;-0.4848;-5.7225;0.0000;0.0000;0.0000;5.6916
2328;-0.3437;-5.7229;0.0000;0.0000;0.0000;6.2725
2329;-0.2021;-5.7232;0.0000;0.0000;0.0000;6.2091
2330;-0.0604;-5.7237;0.0000;0.0000;0.0000;7.4226
2331;0.0815;-5.7241;0.0000;0.0000;0.0000;7.4029
2332;0.2234;-5.7245;0.0000;0.0000;0.0000;6.8390
2333;0.3653;-5.7250;0.0000;0.0000;0.0000;6.5906
2334;0.5072;-5.7255;0.0000;0.0000;0.0000;6.6015
2335;0.6491;-5.7259;0.0000;0.0000;0.0000;7.0376
2336;0.7909;-5.7264;0.0000;0.0000;0.0000;6.9541
2337;0.9323;-5.7270;0.0000;0.0000;0.0000;6.3793
2338;1.0724;-5.7279;0.0000;0.0000;0.0000;5.6509
2339;1.2097;-5.7300;0.0000;0.0000;0.0000;5.8819
2340;1.3421;-5.7337;0.0000;0.0000;0.0000;5.9926
2341;-0.8478;-7.8175;0.0000;0.0000;0.0000;7.9243
2342;-0.7173;-7.8094;0.0000;0.0000;0.0000;6.8027
2343;-0.5795;-7.8098;0.0000;0.0000;0.0000;6.7857
2344;-0.4391;-7.8102;0.0000;0.0000;0.0000;7.5464
2345;-0.2976;-7.8107;0.0000;0.0000;0.0000;8.0280
2346;-0.1557;-7.8113;0.0000;0.0000;0.0000;8.1247
2347;-0.0137;-7.8118;0.0000;0.0000;0.0000;7.4374
2348;0.1284;-7.8124;0.0000;0.0000;0.0000;7.0332
2349;0.2705;-7.8130;0.0000;0.0000;0.0000;5.8438
2350;0.4126;-7.8135;0.0000;0.0000;0.0000;6.4506
2351;0.5547;-7.8141;0.0000;0.0000;0.0000;6.0787
2352;0.6968;-7.8146;0.0000;0.0000;0.0000;6.0577
2353;0.8388;-7.8151;0.0000;0.0000;0.0000;6.2756
2354;0.9802;-7.8154;0.0000;0.0000;0.0000;5.7857
2355;1.1204;-7.8155;0.0000;0.0000;0.0000;5.0087
2356;1.2574;-7.8143;0.0000;0.0000;0.0000;4.6492
2357;1.3909;-7.8097;0.0000;0.0000;0.0000;4.8968
2358;-0.7907;-7.9360;0.0000;0.0000;0.0000;8.0241
2359;-0.6489;-7.9356;0.0000;0.0000;0.0000;7.2734
2360;-0.5082;-7.9357;0.0000;0.0000;0.0000;7.3850
2361;-0.3671;-7.9360;0.0000;0.0000;0.0000;8.1759
2362;-0.2255;-7.9363;0.0000;0.0000;0.0000;8.0503
2363;-0.0837;-7.9366;0.0000;0.0000;0.0000;7.1588
2364;0.0582;-7.9369;0.0000;0.0000;0.0000;7.2143
2365;0.2002;-7.9373;0.0000;0.0000;0.0000;6.9388
2366;0.3421;-7.9377;0.0000;0.0000;0.0000;7.2843
2367;0.4840;-7.9380;0.0000;0.0000;0.0000;7.4256
2368;0.6260;-7.9383;0.0000;0.0000;0.0000;6.1094
2369;0.7678;-7.9386;0.0000;0.0000;0.0000;5.8963
2370;0.9093;-7.9388;0.0000;0.0000;0.0000;6.1562
2371;1.0495;-7.9391;0.0000;0.0000;0.0000;5.7257
2372;1.1859;-7.9392;0.0000;0.0000;0.0000;4.9838
2373;1.3144;-7.9375;0.0000;0.0000;0.0000;5.2122
2374;1.4273;-7.9273;0.0000;0.0000;0.0000;5.3158
2375;-0.8368;-8.0546;0.0000;0.0000;0.0000;7.9746
2376;-0.7125;-8.0621;0.0000;0.0000;0.0000;7.4458
2377;-0.5764;-8.0610;0.0000;0.0000;0.0000;6.0599
2378;-0.4366;-8.0609;0.0000;0.0000;0.0000;6.6150
2379;-0.2956;-8.0609;0.0000;0.0000;0.0000;7.4099
2380;-0.1541;-8.0610;0.0000;0.0000;0.0000;7.3176
2381;-0.0123;-8.0612;0.0000;0.0000;0.0000;7.1120
2382;0.1296;-8.0615;0.0000;0.0000;0.0000;7.3780
2383;0.2715;-8.0617;0.0000;0.0000;0.0000;6.5171
2384;0.4133;-8.0618;0.0000;0.0000;0.0000;5.9672
2385;0.5552;-8.0620;0.0000;0.0000;0.0000;6.5376
2386;0.6971;-8.0621;0.0000;0.0000;0.0000;6.2813
2387;0.8388;-8.0623;0.0000;0.0000;0.0000;6.8780
2388;0.9799;-8.0626;0.0000;0.0000;0.0000;6.4261
2389;1.1197;-8.0629;0.0000;0.0000;0.0000;5.6610
2390;1.2577;-8.0627;0.0000;0.0000;0.0000;4.9873
2391;1.3962;-8.0586;0.0000;0.0000;0.0000;5.2712
2392;-0.8009;-8.1849;0.0000;0.0000;0.0000;5.9698
2393;-0.6513;-8.1852;0.0000;0.0000;0.0000;5.6024
2394;-0.5081;-8.1851;0.0000;0.0000;0.0000;6.0223
2395;-0.3664;-8.1851;0.0000;0.0000;0.0000;7.0503
2396;-0.2248;-8.1851;0.0000;0.0000;0.0000;7.6474
2397;-0.0830;-8.1852;0.0000;0.0000;0.0000;7.0066
2398;0.0589;-8.1854;0.0000;0.0000;0.0000;5.7703
2399;0.2007;-8.1854;0.0000;0.0000;0.0000;4.9864
2400;0.3426;-8.1854;0.0000;0.0000;0.0000;5.2835
2401;0.4844;-8.1855;0.0000;0.0000;0.0000;5.6457
2402;0.6263;-8.1856;0.0000;0.0000;0.0000;6.2279
2403;0.7681;-8.1858;0.0000;0.0000;0.0000;5.6614
2404;0.9095;-8.1859;0.0000;0.0000;0.0000;7.0822
2405;1.0497;-8.1862;0.0000;0.0000;0.0000;7.1439
2406;1.1871;-8.1864;0.0000;0.0000;0.0000;5.6006
2407;1.3185;-8.1862;0.0000;0.0000;0.0000;4.4195
2408;1.4342;-8.1880;0.0000;0.0000;0.0000;4.9650
2409;-0.8395;-8.3168;0.0000;0.0000;0.0000;6.3994
2410;-0.7135;-8.3075;0.0000;0.0000;0.0000;5.0892
2411;-0.5764;-8.3086;0.0000;0.0000;0.0000;6.3338
2412;-0.4364;-8.3089;0.0000;0.0000;0.0000;7.5687
2413;-0.2953;-8.3089;0.0000;0.0000;0.0000;7.0337
2414;-0.1537;-8.3090;0.0000;0.0000;0.0000;7.3180
2415;-0.0119;-8.3090;0.0000;0.0000;0.0000;6.3718
2416;0.1298;-8.3090;0.0000;0.0000;0.0000;5.6719
2417;0.2716;-8.3090;0.0000;0.0000;0.0000;4.6728
2418;0.4136;-8.3090;0.0000;0.0000;0.0000;6.2213
2419;0.5554;-8.3091;0.0000;0.0000;0.0000;7.2629
2420;0.6973;-8.3092;0.0000;0.0000;0.0000;6.6146
2421;0.8390;-8.3092;0.0000;0.0000;0.0000;7.2025
2422;0.9801;-8.3094;0.0000;0.0000;0.0000;6.8994
2423;1.1199;-8.3095;0.0000;0.0000;0.0000;5.9816
2424;1.2583;-8.3098;0.0000;0.0000;0.0000;6.3858
2425;1.3973;-8.3139;0.0000;0.0000;0.0000;5.1754
2426;-0.7899;-8.4318;0.0000;0.0000;0.0000;6.5980
2427;-0.6478;-8.4319;0.0000;0.0000;0.0000;6.4374
2428;-0.5070;-8.4325;0.0000;0.0000;0.0000;6.9178
2429;-0.3660;-8.4326;0.0000;0.0000;0.0000;7.4269
2430;-0.2245;-8.4326;0.0000;0.0000;0.0000;7.6422
2431;-0.0828;-8.4325;0.0000;0.0000;0.0000;7.0757
2432;0.0590;-8.4325;0.0000;0.0000;0.0000;6.2773
2433;0.2008;-8.4326;0.0000;0.0000;0.0000;5.1632
2434;0.3427;-8.4326;0.0000;0.0000;0.0000;5.9090
2435;0.4845;-8.4326;0.0000;0.0000;0.0000;6.8377
2436;0.6264;-8.4326;0.0000;0.0000;0.0000;6.2060
2437;0.7682;-8.4327;0.0000;0.0000;0.0000;6.9046
2438;0.9095;-8.4327;0.0000;0.0000;0.0000;6.3889
2439;1.0495;-8.4328;0.0000;0.0000;0.0000;5.9440
2440;1.1862;-8.4330;0.0000;0.0000;0.0000;5.7673
2441;1.3157;-8.4346;0.0000;0.0000;0.0000;5.8206
2442;1.4310;-8.4444;0.0000;0.0000;0.0000;5.4724
2443;-0.8483;-8.5458;0.0000;0.0000;0.0000;6.6194
2444;-0.7140;-8.5536;0.0000;0.0000;0.0000;7.1934
2445;-0.5762;-8.5556;0.0000;0.0000;0.0000;7.1439
2446;-0.4362;-8.5560;0.0000;0.0000;0.0000;6.9558
2447;-0.2952;-8.5561;0.0000;0.0000;0.0000;6.8565
2448;-0.1536;-8.5560;0.0000;0.0000;0.0000;6.7524
2449;-0.0119;-8.5560;0.0000;0.0000;0.0000;6.7270
2450;0.1299;-8.5561;0.0000;0.0000;0.0000;5.9834
2451;0.2718;-8.5560;0.0000;0.0000;0.0000;6.6439
2452;0.4136;-8.5560;0.0000;0.0000;0.0000;6.5551
2453;0.5555;-8.5560;0.0000;0.0000;0.0000;5.8368
2454;0.6973;-8.5560;0.0000;0.0000;0.0000;5.6995
2455;0.8389;-8.5562;0.0000;0.0000;0.0000;5.9510
2456;0.9799;-8.5563;0.0000;0.0000;0.0000;5.9965
2457;1.1190;-8.5566;0.0000;0.0000;0.0000;5.4545
2458;1.2553;-8.5575;0.0000;0.0000;0.0000;5.2410
2459;1.3900;-8.5616;0.0000;0.0000;0.0000;4.4064
2460;-0.7889;-8.6701;0.0000;0.0000;0.0000;5.8758
2461;-0.6471;-8.6778;0.0000;0.0000;0.0000;6.0153
2462;-0.5067;-8.6793;0.0000;0.0000;0.0000;7.8373
2463;-0.3658;-8.6794;0.0000;0.0000;0.0000;7.3644
2464;-0.2244;-8.6795;0.0000;0.0000;0.0000;6.4199
2465;-0.0827;-8.6795;0.0000;0.0000;0.0000;5.9213
2466;0.0591;-8.6795;0.0000;0.0000;0.0000;6.5993
2467;0.2009;-8.6795;0.0000;0.0000;0.0000;7.0521
2468;0.3427;-8.6794;0.0000;0.0000;0.0000;6.7699
2469;0.4846;-8.6794;0.0000;0.0000;0.0000;6.7603
2470;0.6265;-8.6794;0.0000;0.0000;0.0000;6.4816
2471;0.7682;-8.6794;0.0000;0.0000;0.0000;7.4208
2472;0.9096;-8.6796;0.0000;0.0000;0.0000;6.6413
2473;1.0497;-8.6799;0.0000;0.0000;0.0000;5.5267
2474;1.1869;-8.6805;0.0000;0.0000;0.0000;5.5433
2475;1.3191;-8.6812;0.0000;0.0000;0.0000;6.1557
2476;1.4457;-8.6829;0.0000;0.0000;0.0000;5.5346
2477;-0.8333;-8.7838;0.0000;0.0000;0.0000;6.4322
2478;-0.7108;-8.7993;0.0000;0.0000;0.0000;5.6601
2479;-0.5753;-8.8026;0.0000;0.0000;0.0000;6.4724
2480;-0.4359;-8.8029;0.0000;0.0000;0.0000;7.5560
2481;-0.2950;-8.8028;0.0000;0.0000;0.0000;5.9576
2482;-0.1535;-8.8028;0.0000;0.0000;0.0000;5.5652
2483;-0.0118;-8.8028;0.0000;0.0000;0.0000;5.9134
2484;0.1300;-8.8028;0.0000;0.0000;0.0000;6.1133
2485;0.2719;-8.8028;0.0000;0.0000;0.0000;5.6137
2486;0.4137;-8.8027;0.0000;0.0000;0.0000;6.1037
2487;0.5556;-8.8027;0.0000;0.0000;0.0000;6.7266
2488;0.6974;-8.8027;0.0000;0.0000;0.0000;7.6592
2489;0.8390;-8.8028;0.0000;0.0000;0.0000;7.3123
2490;0.9800;-8.8029;0.0000;0.0000;0.0000;5.7165
2491;1.1195;-8.8034;0.0000;0.0000;0.0000;5.0319
2492;1.2562;-8.8039;0.0000;0.0000;0.0000;6.1395
2493;1.3920;-8.8017;0.0000;0.0000;0.0000;5.9751
2494;-0.7971;-8.9173;0.0000;0.0000;0.0000;5.4571
2495;-0.6503;-8.9250;0.0000;0.0000;0.0000;4.7485
2496;-0.5077;-8.9263;0.0000;0.0000;0.0000;6.1094
2497;-0.3660;-8.9263;0.0000;0.0000;0.0000;6.7065
2498;-0.2243;-8.9262;0.0000;0.0000;0.0000;6.3101
2499;-0.0826;-8.9262;0.0000;0.0000;0.0000;5.8928
2500;0.0591;-8.9262;0.0000;0.0000;0.0000;6.2931
2501;0.2010;-8.9262;0.0000;0.0000;0.0000;5.6737
2502;0.3428;-8.9261;0.0000;0.0000;0.0000;5.0958
2503;0.4847;-8.9260;0.0000;0.0000;0.0000;6.4318
2504;0.6265;-8.9260;0.0000;0.0000;0.0000;7.3469
2505;0.7683;-8.9261;0.0000;0.0000;0.0000;7.6190
2506;0.9097;-8.9262;0.0000;0.0000;0.0000;7.0302
2507;1.0499;-8.9266;0.0000;0.0000;0.0000;5.5197
2508;1.1873;-8.9274;0.0000;0.0000;0.0000;6.0407
2509;1.3184;-8.9274;0.0000;0.0000;0.0000;6.2371
2510;1.4358;-8.9195;0.0000;0.0000;0.0000;6.0394
2511;-0.8362;-9.0463;0.0000;0.0000;0.0000;5.9405
2512;-0.7140;-9.0474;0.0000;0.0000;0.0000;4.9409
2513;-0.5768;-9.0491;0.0000;0.0000;0.0000;4.6080
2514;-0.4364;-9.0496;0.0000;0.0000;0.0000;6.3014
2515;-0.2951;-9.0496;0.0000;0.0000;0.0000;6.9169
2516;-0.1535;-9.0495;0.0000;0.0000;0.0000;6.8653
2517;-0.0117;-9.0496;0.0000;0.0000;0.0000;7.2371
2518;0.1301;-9.0496;0.0000;0.0000;0.0000;6.5927
2519;0.2720;-9.0495;0.0000;0.0000;0.0000;6.1527
2520;0.4138;-9.0495;0.0000;0.0000;0.0000;6.5888
2521;0.5557;-9.0494;0.0000;0.0000;0.0000;6.0481
2522;0.6974;-9.0494;0.0000;0.0000;0.0000;7.0827
2523;0.8391;-9.0495;0.0000;0.0000;0.0000;7.1675
2524;0.9805;-9.0497;0.0000;0.0000;0.0000;6.3631
2525;1.1209;-9.0502;0.0000;0.0000;0.0000;5.3001
2526;1.2609;-9.0508;0.0000;0.0000;0.0000;6.1334
2527;1.4033;-9.0485;0.0000;0.0000;0.0000;6.0849
2528;-0.7976;-9.1744;0.0000;0.0000;0.0000;6.4961
2529;-0.6504;-9.1719;0.0000;0.0000;0.0000;5.2822
2530;-0.5077;-9.1725;0.0000;0.0000;0.0000;5.9948
2531;-0.3660;-9.1728;0.0000;0.0000;0.0000;6.9178
2532;-0.2243;-9.1729;0.0000;0.0000;0.0000;5.8622
2533;-0.0827;-9.1729;0.0000;0.0000;0.0000;5.9374
2534;0.0592;-9.1728;0.0000;0.0000;0.0000;7.4952
2535;0.2010;-9.1728;0.0000;0.0000;0.0000;7.3893
2536;0.3429;-9.1728;0.0000;0.0000;0.0000;7.1032
2537;0.4847;-9.1728;0.0000;0.0000;0.0000;6.3307
2538;0.6265;-9.1728;0.0000;0.0000;0.0000;6.2966
2539;0.7683;-9.1727;0.0000;0.0000;0.0000;6.9716
2540;0.9098;-9.1729;0.0000;0.0000;0.0000;6.4466
2541;1.0504;-9.1731;0.0000;0.0000;0.0000;5.8342
2542;1.1889;-9.1733;0.0000;0.0000;0.0000;6.5284
2543;1.3227;-9.1746;0.0000;0.0000;0.0000;5.2944
2544;1.4404;-9.1754;0.0000;0.0000;0.0000;5.0057
2545;-0.8331;-9.3045;0.0000;0.0000;0.0000;6.8001
2546;-0.7102;-9.2957;0.0000;0.0000;0.0000;5.7804
2547;-0.5751;-9.2955;0.0000;0.0000;0.0000;5.5932
2548;-0.4357;-9.2959;0.0000;0.0000;0.0000;5.0822
2549;-0.2948;-9.2961;0.0000;0.0000;0.0000;4.2992
2550;-0.1534;-9.2963;0.0000;0.0000;0.0000;5.4541
2551;-0.0117;-9.2961;0.0000;0.0000;0.0000;6.6120
2552;0.1301;-9.2961;0.0000;0.0000;0.0000;6.1995
2553;0.2720;-9.2961;0.0000;0.0000;0.0000;5.9991
2554;0.4139;-9.2961;0.0000;0.0000;0.0000;6.7813
2555;0.5557;-9.2961;0.0000;0.0000;0.0000;7.2563
2556;0.6974;-9.2961;0.0000;0.0000;0.0000;7.0608
2557;0.8391;-9.2961;0.0000;0.0000;0.0000;6.6452
2558;0.9805;-9.2962;0.0000;0.0000;0.0000;6.4510
2559;1.1210;-9.2962;0.0000;0.0000;0.0000;6.5096
2560;1.2607;-9.2966;0.0000;0.0000;0.0000;5.8141
2561;1.4032;-9.3036;0.0000;0.0000;0.0000;4.6732
2562;-0.7873;-9.4217;0.0000;0.0000;0.0000;6.2104
2563;-0.6461;-9.4195;0.0000;0.0000;0.0000;5.3031
2564;-0.5061;-9.4194;0.0000;0.0000;0.0000;5.8303
2565;-0.3655;-9.4195;0.0000;0.0000;0.0000;4.6960
2566;-0.2242;-9.4196;0.0000;0.0000;0.0000;5.1308
2567;-0.0826;-9.4195;0.0000;0.0000;0.0000;7.5665
2568;0.0592;-9.4195;0.0000;0.0000;0.0000;6.4458
2569;0.2010;-9.4195;0.0000;0.0000;0.0000;5.2502
2570;0.3429;-9.4195;0.0000;0.0000;0.0000;5.5748
2571;0.4847;-9.4195;0.0000;0.0000;0.0000;6.3001
2572;0.6266;-9.4194;0.0000;0.0000;0.0000;5.9199
2573;0.7684;-9.4194;0.0000;0.0000;0.0000;6.8959
2574;0.9099;-9.4195;0.0000;0.0000;0.0000;6.9637
2575;1.0501;-9.4196;0.0000;0.0000;0.0000;6.7143
2576;1.1874;-9.4195;0.0000;0.0000;0.0000;5.7178
2577;1.3186;-9.4203;0.0000;0.0000;0.0000;4.6308
2578;1.4380;-9.4364;0.0000;0.0000;0.0000;4.8556
2579;-0.8449;-9.5404;0.0000;0.0000;0.0000;7.2130
2580;-0.7120;-9.5423;0.0000;0.0000;0.0000;6.1330
2581;-0.5750;-9.5428;0.0000;0.0000;0.0000;5.4873
2582;-0.4356;-9.5429;0.0000;0.0000;0.0000;4.1295
2583;-0.2948;-9.5429;0.0000;0.0000;0.0000;4.6903
2584;-0.1534;-9.5429;0.0000;0.0000;0.0000;5.6811
2585;-0.0117;-9.5429;0.0000;0.0000;0.0000;6.2997
2586;0.1301;-9.5429;0.0000;0.0000;0.0000;6.1763
2587;0.2720;-9.5429;0.0000;0.0000;0.0000;6.2616
2588;0.4138;-9.5429;0.0000;0.0000;0.0000;5.3911
2589;0.5556;-9.5428;0.0000;0.0000;0.0000;5.2857
2590;0.6975;-9.5428;0.0000;0.0000;0.0000;5.5490
2591;0.8392;-9.5428;0.0000;0.0000;0.0000;6.9374
2592;0.9803;-9.5430;0.0000;0.0000;0.0000;6.6518
2593;1.1196;-9.5433;0.0000;0.0000;0.0000;6.0153
2594;1.2561;-9.5436;0.0000;0.0000;0.0000;5.8224
2595;1.3904;-9.5436;0.0000;0.0000;0.0000;5.2161
2596;-0.7864;-9.6614;0.0000;0.0000;0.0000;6.7647
2597;-0.6456;-9.6658;0.0000;0.0000;0.0000;7.0210
2598;-0.5058;-9.6663;0.0000;0.0000;0.0000;5.2493
2599;-0.3654;-9.6663;0.0000;0.0000;0.0000;4.7734
2600;-0.2241;-9.6663;0.0000;0.0000;0.0000;5.2187
2601;-0.0825;-9.6662;0.0000;0.0000;0.0000;4.8670
2602;0.0592;-9.6662;0.0000;0.0000;0.0000;6.1251
2603;0.2010;-9.6662;0.0000;0.0000;0.0000;7.2935
2604;0.3428;-9.6662;0.0000;0.0000;0.0000;6.8018
2605;0.4847;-9.6662;0.0000;0.0000;0.0000;6.9173
2606;0.6266;-9.6662;0.0000;0.0000;0.0000;6.9016
2607;0.7684;-9.6662;0.0000;0.0000;0.0000;5.7257
2608;0.9098;-9.6663;0.0000;0.0000;0.0000;6.0477
2609;1.0501;-9.6667;0.0000;0.0000;0.0000;6.0595
2610;1.1876;-9.6674;0.0000;0.0000;0.0000;6.5057
2611;1.3193;-9.6670;0.0000;0.0000;0.0000;6.9545
2612;1.4397;-9.6495;0.0000;0.0000;0.0000;6.0389
2613;-0.8309;-9.7773;0.0000;0.0000;0.0000;6.0726
2614;-0.7089;-9.7887;0.0000;0.0000;0.0000;6.4396
2615;-0.5742;-9.7901;0.0000;0.0000;0.0000;5.8023
2616;-0.4353;-9.7899;0.0000;0.0000;0.0000;5.3364
2617;-0.2947;-9.7897;0.0000;0.0000;0.0000;5.5507
2618;-0.1533;-9.7896;0.0000;0.0000;0.0000;5.0783
2619;-0.0116;-9.7895;0.0000;0.0000;0.0000;5.6807
2620;0.1302;-9.7896;0.0000;0.0000;0.0000;6.9523
2621;0.2720;-9.7896;0.0000;0.0000;0.0000;6.6024
2622;0.4139;-9.7896;0.0000;0.0000;0.0000;6.5026
2623;0.5557;-9.7896;0.0000;0.0000;0.0000;6.8924
2624;0.6976;-9.7896;0.0000;0.0000;0.0000;6.7091
2625;0.8393;-9.7896;0.0000;0.0000;0.0000;5.7502
2626;0.9807;-9.7898;0.0000;0.0000;0.0000;6.2262
2627;1.1214;-9.7904;0.0000;0.0000;0.0000;6.3145
2628;1.2621;-9.7905;0.0000;0.0000;0.0000;6.2003
2629;1.4065;-9.7822;0.0000;0.0000;0.0000;7.0486
2630;-0.7955;-9.9087;0.0000;0.0000;0.0000;5.1203
2631;-0.6492;-9.9132;0.0000;0.0000;0.0000;5.7524
2632;-0.5070;-9.9133;0.0000;0.0000;0.0000;6.6684
2633;-0.3656;-9.9132;0.0000;0.0000;0.0000;6.1286
2634;-0.2241;-9.9130;0.0000;0.0000;0.0000;5.5376
2635;-0.0825;-9.9130;0.0000;0.0000;0.0000;4.2721
2636;0.0593;-9.9130;0.0000;0.0000;0.0000;5.1745
2637;0.2011;-9.9130;0.0000;0.0000;0.0000;6.5919
2638;0.3429;-9.9130;0.0000;0.0000;0.0000;6.4033
2639;0.4848;-9.9129;0.0000;0.0000;0.0000;6.2161
2640;0.6267;-9.9129;0.0000;0.0000;0.0000;5.9283
2641;0.7685;-9.9129;0.0000;0.0000;0.0000;6.2905
2642;0.9101;-9.9130;0.0000;0.0000;0.0000;6.6492
2643;1.0510;-9.9133;0.0000;0.0000;0.0000;6.2200
2644;1.1906;-9.9135;0.0000;0.0000;0.0000;6.6605
2645;1.3263;-9.9121;0.0000;0.0000;0.0000;7.1728
2646;1.4461;-9.9101;0.0000;0.0000;0.0000;6.5840
2647;-0.8363;-10.0373;0.0000;0.0000;0.0000;5.4029
2648;-0.7131;-10.0365;0.0000;0.0000;0.0000;5.4230
2649;-0.5760;-10.0363;0.0000;0.0000;0.0000;5.6483
2650;-0.4359;-10.0364;0.0000;0.0000;0.0000;6.1881
2651;-0.2948;-10.0364;0.0000;0.0000;0.0000;7.1190
2652;-0.1533;-10.0364;0.0000;0.0000;0.0000;5.1129
2653;-0.0117;-10.0364;0.0000;0.0000;0.0000;4.6807
2654;0.1302;-10.0363;0.0000;0.0000;0.0000;6.0494
2655;0.2720;-10.0363;0.0000;0.0000;0.0000;7.2152
2656;0.4139;-10.0362;0.0000;0.0000;0.0000;6.4965
2657;0.5558;-10.0362;0.0000;0.0000;0.0000;6.1885
2658;0.6976;-10.0362;0.0000;0.0000;0.0000;6.5293
2659;0.8393;-10.0362;0.0000;0.0000;0.0000;6.7752
2660;0.9810;-10.0364;0.0000;0.0000;0.0000;6.3377
2661;1.1225;-10.0365;0.0000;0.0000;0.0000;5.8381
2662;1.2645;-10.0361;0.0000;0.0000;0.0000;6.6986
2663;1.4101;-10.0379;0.0000;0.0000;0.0000;6.2397
2664;-0.7945;-10.1653;0.0000;0.0000;0.0000;5.5617
2665;-0.6488;-10.1597;0.0000;0.0000;0.0000;5.5534
2666;-0.5069;-10.1595;0.0000;0.0000;0.0000;5.7542
2667;-0.3655;-10.1597;0.0000;0.0000;0.0000;6.3736
2668;-0.2240;-10.1598;0.0000;0.0000;0.0000;5.8640
2669;-0.0825;-10.1598;0.0000;0.0000;0.0000;5.4694
2670;0.0593;-10.1596;0.0000;0.0000;0.0000;6.0709
2671;0.2011;-10.1596;0.0000;0.0000;0.0000;7.5092
2672;0.3430;-10.1596;0.0000;0.0000;0.0000;6.5757
2673;0.4849;-10.1596;0.0000;0.0000;0.0000;6.4020
2674;0.6267;-10.1596;0.0000;0.0000;0.0000;6.6343
2675;0.7685;-10.1596;0.0000;0.0000;0.0000;6.6969
2676;0.9101;-10.1596;0.0000;0.0000;0.0000;5.9055
2677;1.0512;-10.1597;0.0000;0.0000;0.0000;5.2607
2678;1.1902;-10.1595;0.0000;0.0000;0.0000;6.3027
2679;1.3243;-10.1597;0.0000;0.0000;0.0000;6.2975
2680;1.4457;-10.1677;0.0000;0.0000;0.0000;6.1754
2681;-0.8292;-10.2978;0.0000;0.0000;0.0000;6.5074
2682;-0.7080;-10.2849;0.0000;0.0000;0.0000;5.9808
2683;-0.5738;-10.2829;0.0000;0.0000;0.0000;4.9287
2684;-0.4351;-10.2830;0.0000;0.0000;0.0000;5.6260
2685;-0.2945;-10.2831;0.0000;0.0000;0.0000;5.5249
2686;-0.1532;-10.2831;0.0000;0.0000;0.0000;5.5297
2687;-0.0115;-10.2831;0.0000;0.0000;0.0000;6.4987
2688;0.1302;-10.2830;0.0000;0.0000;0.0000;6.8294
2689;0.2721;-10.2830;0.0000;0.0000;0.0000;6.4401
2690;0.4139;-10.2830;0.0000;0.0000;0.0000;5.7839
2691;0.5558;-10.2830;0.0000;0.0000;0.0000;6.5140
2692;0.6976;-10.2830;0.0000;0.0000;0.0000;5.6190
2693;0.8394;-10.2830;0.0000;0.0000;0.0000;6.0639
2694;0.9809;-10.2831;0.0000;0.0000;0.0000;5.6798
2695;1.1217;-10.2831;0.0000;0.0000;0.0000;5.2927
2696;1.2612;-10.2833;0.0000;0.0000;0.0000;5.4322
2697;1.4015;-10.2853;0.0000;0.0000;0.0000;6.1164
2698;-0.7845;-10.4133;0.0000;0.0000;0.0000;6.8556
2699;-0.6444;-10.4076;0.0000;0.0000;0.0000;6.6662
2700;-0.5052;-10.4066;0.0000;0.0000;0.0000;7.1794
2701;-0.3650;-10.4065;0.0000;0.0000;0.0000;6.4768
2702;-0.2239;-10.4065;0.0000;0.0000;0.0000;5.3421
2703;-0.0824;-10.4064;0.0000;0.0000;0.0000;5.2441
2704;0.0594;-10.4064;0.0000;0.0000;0.0000;6.5560
2705;0.2012;-10.4064;0.0000;0.0000;0.0000;6.5617
2706;0.3430;-10.4064;0.0000;0.0000;0.0000;5.5092
2707;0.4849;-10.4064;0.0000;0.0000;0.0000;5.7410
2708;0.6267;-10.4064;0.0000;0.0000;0.0000;5.2598
2709;0.7685;-10.4065;0.0000;0.0000;0.0000;5.1185
2710;0.9103;-10.4065;0.0000;0.0000;0.0000;5.4899
2711;1.0513;-10.4065;0.0000;0.0000;0.0000;5.7157
2712;1.1908;-10.4065;0.0000;0.0000;0.0000;5.9296
2713;1.3274;-10.4062;0.0000;0.0000;0.0000;6.0547
2714;1.4601;-10.4034;0.0000;0.0000;0.0000;6.3587
2715;-0.8420;-10.5355;0.0000;0.0000;0.0000;6.1260
2716;-0.7100;-10.5317;0.0000;0.0000;0.0000;6.6185
2717;-0.5738;-10.5303;0.0000;0.0000;0.0000;7.5761
2718;-0.4349;-10.5299;0.0000;0.0000;0.0000;6.9195
2719;-0.2944;-10.5298;0.0000;0.0000;0.0000;6.4453
2720;-0.1531;-10.5298;0.0000;0.0000;0.0000;5.8465
2721;-0.0115;-10.5298;0.0000;0.0000;0.0000;5.7577
2722;0.1303;-10.5298;0.0000;0.0000;0.0000;5.6623
2723;0.2721;-10.5298;0.0000;0.0000;0.0000;6.4864
2724;0.4140;-10.5298;0.0000;0.0000;0.0000;6.7690
2725;0.5558;-10.5298;0.0000;0.0000;0.0000;5.7126
2726;0.6977;-10.5298;0.0000;0.0000;0.0000;5.6964
2727;0.8396;-10.5297;0.0000;0.0000;0.0000;5.5691
2728;0.9811;-10.5298;0.0000;0.0000;0.0000;5.9987
2729;1.1219;-10.5301;0.0000;0.0000;0.0000;6.1107
2730;1.2618;-10.5297;0.0000;0.0000;0.0000;5.6877
2731;1.4028;-10.5247;0.0000;0.0000;0.0000;5.0223
2732;-0.7844;-10.6530;0.0000;0.0000;0.0000;6.1885
2733;-0.6444;-10.6540;0.0000;0.0000;0.0000;6.3307
2734;-0.5051;-10.6535;0.0000;0.0000;0.0000;6.9195
2735;-0.3648;-10.6533;0.0000;0.0000;0.0000;7.2349
2736;-0.2238;-10.6532;0.0000;0.0000;0.0000;6.6395
2737;-0.0823;-10.6530;0.0000;0.0000;0.0000;6.2647
2738;0.0594;-10.6531;0.0000;0.0000;0.0000;6.1474
2739;0.2012;-10.6531;0.0000;0.0000;0.0000;6.5704
2740;0.3431;-10.6531;0.0000;0.0000;0.0000;6.8202
2741;0.4849;-10.6531;0.0000;0.0000;0.0000;6.5521
2742;0.6268;-10.6532;0.0000;0.0000;0.0000;5.6614
2743;0.7686;-10.6532;0.0000;0.0000;0.0000;4.9589
2744;0.9104;-10.6532;0.0000;0.0000;0.0000;6.1579
2745;1.0515;-10.6535;0.0000;0.0000;0.0000;6.7375
2746;1.1909;-10.6539;0.0000;0.0000;0.0000;6.3154
2747;1.3262;-10.6525;0.0000;0.0000;0.0000;5.8780
2748;1.4488;-10.6399;0.0000;0.0000;0.0000;5.4444
2749;-0.8292;-10.7708;0.0000;0.0000;0.0000;5.4471
2750;-0.7078;-10.7778;0.0000;0.0000;0.0000;6.2542
2751;-0.5734;-10.7773;0.0000;0.0000;0.0000;6.5389
2752;-0.4348;-10.7769;0.0000;0.0000;0.0000;6.9086
2753;-0.2943;-10.7767;0.0000;0.0000;0.0000;6.9729
2754;-0.1530;-10.7765;0.0000;0.0000;0.0000;6.9707
2755;-0.0114;-10.7765;0.0000;0.0000;0.0000;6.9961
2756;0.1303;-10.7765;0.0000;0.0000;0.0000;6.7056
2757;0.2722;-10.7765;0.0000;0.0000;0.0000;6.7406
2758;0.4140;-10.7765;0.0000;0.0000;0.0000;6.9969
2759;0.5559;-10.7766;0.0000;0.0000;0.0000;6.2073
2760;0.6978;-10.7766;0.0000;0.0000;0.0000;4.2126
2761;0.8396;-10.7766;0.0000;0.0000;0.0000;4.2800
2762;0.9815;-10.7767;0.0000;0.0000;0.0000;6.1728
2763;1.1235;-10.7770;0.0000;0.0000;0.0000;6.2073
2764;1.2666;-10.7770;0.0000;0.0000;0.0000;6.2463
2765;1.4143;-10.7718;0.0000;0.0000;0.0000;6.5223
2766;-0.7939;-10.8994;0.0000;0.0000;0.0000;6.2813
2767;-0.6475;-10.9001;0.0000;0.0000;0.0000;6.8307
2768;-0.5061;-10.9002;0.0000;0.0000;0.0000;6.6382
2769;-0.3651;-10.9000;0.0000;0.0000;0.0000;6.1299
2770;-0.2238;-10.9000;0.0000;0.0000;0.0000;7.3893
2771;-0.0823;-10.9000;0.0000;0.0000;0.0000;7.0302
2772;0.0594;-10.8999;0.0000;0.0000;0.0000;6.9899
2773;0.2012;-10.9000;0.0000;0.0000;0.0000;6.4038
2774;0.3431;-10.8999;0.0000;0.0000;0.0000;6.2857
2775;0.4850;-10.8999;0.0000;0.0000;0.0000;6.1194
2776;0.6269;-10.8999;0.0000;0.0000;0.0000;5.8189
2777;0.7687;-10.8999;0.0000;0.0000;0.0000;5.0748
2778;0.9106;-10.8999;0.0000;0.0000;0.0000;5.2695
2779;1.0522;-10.9000;0.0000;0.0000;0.0000;5.4965
2780;1.1933;-10.9001;0.0000;0.0000;0.0000;5.7178
2781;1.3320;-10.9003;0.0000;0.0000;0.0000;6.6094
2782;1.4570;-10.9003;0.0000;0.0000;0.0000;5.7918
2783;-0.8293;-11.0269;0.0000;0.0000;0.0000;6.3517
2784;-0.7078;-11.0221;0.0000;0.0000;0.0000;6.7043
2785;-0.5734;-11.0231;0.0000;0.0000;0.0000;6.3263
2786;-0.4348;-11.0233;0.0000;0.0000;0.0000;5.9978
2787;-0.2943;-11.0233;0.0000;0.0000;0.0000;6.4641
2788;-0.1531;-11.0233;0.0000;0.0000;0.0000;6.4458
2789;-0.0114;-11.0234;0.0000;0.0000;0.0000;7.0551
2790;0.1303;-11.0233;0.0000;0.0000;0.0000;6.4283
2791;0.2721;-11.0233;0.0000;0.0000;0.0000;6.0687
2792;0.4141;-11.0233;0.0000;0.0000;0.0000;6.3062
2793;0.5560;-11.0232;0.0000;0.0000;0.0000;5.8346
2794;0.6979;-11.0233;0.0000;0.0000;0.0000;5.6242
2795;0.8397;-11.0232;0.0000;0.0000;0.0000;6.5962
2796;0.9816;-11.0232;0.0000;0.0000;0.0000;6.7703
2797;1.1238;-11.0232;0.0000;0.0000;0.0000;6.3001
2798;1.2674;-11.0236;0.0000;0.0000;0.0000;6.1321
2799;1.4158;-11.0292;0.0000;0.0000;0.0000;5.9374
2800;-0.7838;-11.1456;0.0000;0.0000;0.0000;7.3036
2801;-0.6441;-11.1462;0.0000;0.0000;0.0000;6.7747
2802;-0.5049;-11.1467;0.0000;0.0000;0.0000;6.0459
2803;-0.3648;-11.1467;0.0000;0.0000;0.0000;6.8403
2804;-0.2237;-11.1467;0.0000;0.0000;0.0000;7.0184
2805;-0.0822;-11.1467;0.0000;0.0000;0.0000;6.7047
2806;0.0595;-11.1466;0.0000;0.0000;0.0000;6.1365
2807;0.2013;-11.1466;0.0000;0.0000;0.0000;6.5639
2808;0.3432;-11.1467;0.0000;0.0000;0.0000;7.0989
2809;0.4851;-11.1467;0.0000;0.0000;0.0000;7.0652
2810;0.6269;-11.1466;0.0000;0.0000;0.0000;7.1807
2811;0.7688;-11.1466;0.0000;0.0000;0.0000;6.5547
2812;0.9106;-11.1465;0.0000;0.0000;0.0000;5.8377
2813;1.0520;-11.1465;0.0000;0.0000;0.0000;6.0700
2814;1.1923;-11.1468;0.0000;0.0000;0.0000;5.7944
2815;1.3287;-11.1490;0.0000;0.0000;0.0000;5.5564
2816;1.4527;-11.1620;0.0000;0.0000;0.0000;5.2922
2817;-0.8399;-11.2612;0.0000;0.0000;0.0000;6.9991
2818;-0.7091;-11.2680;0.0000;0.0000;0.0000;7.7340
2819;-0.5734;-11.2698;0.0000;0.0000;0.0000;6.7865
2820;-0.4346;-11.2702;0.0000;0.0000;0.0000;6.6457
2821;-0.2942;-11.2701;0.0000;0.0000;0.0000;7.3539
2822;-0.1530;-11.2700;0.0000;0.0000;0.0000;6.9064
2823;-0.0113;-11.2700;0.0000;0.0000;0.0000;6.7161
2824;0.1304;-11.2700;0.0000;0.0000;0.0000;6.6614
2825;0.2723;-11.2700;0.0000;0.0000;0.0000;6.1024
2826;0.4142;-11.2701;0.0000;0.0000;0.0000;5.9112
2827;0.5560;-11.2701;0.0000;0.0000;0.0000;6.4265
2828;0.6978;-11.2700;0.0000;0.0000;0.0000;6.8027
2829;0.8398;-11.2700;0.0000;0.0000;0.0000;6.2642
2830;0.9816;-11.2700;0.0000;0.0000;0.0000;5.7248
2831;1.1231;-11.2702;0.0000;0.0000;0.0000;6.0245
2832;1.2644;-11.2717;0.0000;0.0000;0.0000;5.5516
2833;1.4074;-11.2773;0.0000;0.0000;0.0000;5.4921
2834;-0.7825;-11.3853;0.0000;0.0000;0.0000;7.7108
2835;-0.6434;-11.3921;0.0000;0.0000;0.0000;7.6899
2836;-0.5046;-11.3934;0.0000;0.0000;0.0000;7.0245
2837;-0.3646;-11.3936;0.0000;0.0000;0.0000;6.9099
2838;-0.2236;-11.3935;0.0000;0.0000;0.0000;7.1286
2839;-0.0821;-11.3935;0.0000;0.0000;0.0000;6.7222
2840;0.0596;-11.3934;0.0000;0.0000;0.0000;6.1102
2841;0.2013;-11.3935;0.0000;0.0000;0.0000;4.9878
2842;0.3432;-11.3934;0.0000;0.0000;0.0000;6.1881
2843;0.4851;-11.3935;0.0000;0.0000;0.0000;6.2266
2844;0.6269;-11.3934;0.0000;0.0000;0.0000;5.4834
2845;0.7688;-11.3934;0.0000;0.0000;0.0000;6.1741
2846;0.9107;-11.3934;0.0000;0.0000;0.0000;6.8408
2847;1.0523;-11.3935;0.0000;0.0000;0.0000;6.3994
2848;1.1930;-11.3942;0.0000;0.0000;0.0000;6.4269
2849;1.3321;-11.3957;0.0000;0.0000;0.0000;5.3136
2850;1.4685;-11.3986;0.0000;0.0000;0.0000;5.1855
2851;-0.8256;-11.5001;0.0000;0.0000;0.0000;6.1242
2852;-0.7058;-11.5140;0.0000;0.0000;0.0000;6.9234
2853;-0.5725;-11.5168;0.0000;0.0000;0.0000;6.7458
2854;-0.4343;-11.5170;0.0000;0.0000;0.0000;6.2187
2855;-0.2941;-11.5169;0.0000;0.0000;0.0000;6.7301
2856;-0.1528;-11.5168;0.0000;0.0000;0.0000;6.6452
2857;-0.0112;-11.5167;0.0000;0.0000;0.0000;6.7603
2858;0.1305;-11.5168;0.0000;0.0000;0.0000;6.4479
2859;0.2723;-11.5168;0.0000;0.0000;0.0000;5.2397
2860;0.4142;-11.5168;0.0000;0.0000;0.0000;6.0477
2861;0.5561;-11.5168;0.0000;0.0000;0.0000;6.3924
2862;0.6979;-11.5168;0.0000;0.0000;0.0000;6.0774
2863;0.8399;-11.5168;0.0000;0.0000;0.0000;6.4707
2864;0.9817;-11.5169;0.0000;0.0000;0.0000;6.0936
2865;1.1234;-11.5172;0.0000;0.0000;0.0000;6.2572
2866;1.2653;-11.5179;0.0000;0.0000;0.0000;6.0311
2867;1.4093;-11.5163;0.0000;0.0000;0.0000;5.4265
2868;-0.7905;-11.6330;0.0000;0.0000;0.0000;5.7025
2869;-0.6465;-11.6395;0.0000;0.0000;0.0000;6.6969
2870;-0.5056;-11.6404;0.0000;0.0000;0.0000;5.9759
2871;-0.3648;-11.6404;0.0000;0.0000;0.0000;5.6439
2872;-0.2236;-11.6403;0.0000;0.0000;0.0000;7.1907
2873;-0.0820;-11.6402;0.0000;0.0000;0.0000;6.8430
2874;0.0597;-11.6402;0.0000;0.0000;0.0000;6.3810
2875;0.2014;-11.6402;0.0000;0.0000;0.0000;6.2668
2876;0.3433;-11.6402;0.0000;0.0000;0.0000;6.6850
2877;0.4852;-11.6403;0.0000;0.0000;0.0000;6.5162
2878;0.6271;-11.6402;0.0000;0.0000;0.0000;6.6492
2879;0.7689;-11.6402;0.0000;0.0000;0.0000;6.4913
2880;0.9108;-11.6402;0.0000;0.0000;0.0000;7.1050
2881;1.0523;-11.6404;0.0000;0.0000;0.0000;6.1850
2882;1.1932;-11.6411;0.0000;0.0000;0.0000;5.0630
2883;1.3316;-11.6419;0.0000;0.0000;0.0000;6.0569
2884;1.4581;-11.6327;0.0000;0.0000;0.0000;4.7126
2885;-0.8289;-11.7619;0.0000;0.0000;0.0000;4.8478
2886;-0.7091;-11.7623;0.0000;0.0000;0.0000;5.8705
2887;-0.5740;-11.7635;0.0000;0.0000;0.0000;5.0595
2888;-0.4348;-11.7637;0.0000;0.0000;0.0000;5.3478
2889;-0.2941;-11.7637;0.0000;0.0000;0.0000;6.4125
2890;-0.1528;-11.7636;0.0000;0.0000;0.0000;7.0206
2891;-0.0112;-11.7636;0.0000;0.0000;0.0000;6.2117
2892;0.1306;-11.7636;0.0000;0.0000;0.0000;6.3355
2893;0.2725;-11.7636;0.0000;0.0000;0.0000;6.8675
2894;0.4144;-11.7636;0.0000;0.0000;0.0000;6.7747
2895;0.5562;-11.7636;0.0000;0.0000;0.0000;6.7047
2896;0.6980;-11.7636;0.0000;0.0000;0.0000;7.0713
2897;0.8399;-11.7636;0.0000;0.0000;0.0000;6.7231
2898;0.9820;-11.7636;0.0000;0.0000;0.0000;6.6255
2899;1.1247;-11.7638;0.0000;0.0000;0.0000;6.5507
2900;1.2697;-11.7640;0.0000;0.0000;0.0000;5.7813
2901;1.4224;-11.7631;0.0000;0.0000;0.0000;4.9965
2902;-0.7907;-11.8891;0.0000;0.0000;0.0000;5.2616
2903;-0.6466;-11.8864;0.0000;0.0000;0.0000;6.2498
2904;-0.5056;-11.8868;0.0000;0.0000;0.0000;5.5468
2905;-0.3647;-11.8869;0.0000;0.0000;0.0000;5.5525
2906;-0.2235;-11.8869;0.0000;0.0000;0.0000;5.6247
2907;-0.0820;-11.8870;0.0000;0.0000;0.0000;6.3023
2908;0.0598;-11.8869;0.0000;0.0000;0.0000;6.6562
2909;0.2016;-11.8869;0.0000;0.0000;0.0000;6.6675
2910;0.3434;-11.8869;0.0000;0.0000;0.0000;6.7673
2911;0.4853;-11.8869;0.0000;0.0000;0.0000;6.2817
2912;0.6271;-11.8869;0.0000;0.0000;0.0000;6.7235
2913;0.7690;-11.8870;0.0000;0.0000;0.0000;7.0162
2914;0.9108;-11.8869;0.0000;0.0000;0.0000;6.4493
2915;1.0527;-11.8869;0.0000;0.0000;0.0000;7.0232
2916;1.1944;-11.8869;0.0000;0.0000;0.0000;6.9296
2917;1.3340;-11.8858;0.0000;0.0000;0.0000;6.3364
2918;1.4634;-11.8951;0.0000;0.0000;0.0000;6.3045
2919;-0.8250;-12.0192;0.0000;0.0000;0.0000;4.9589
2920;-0.7051;-12.0104;0.0000;0.0000;0.0000;6.2209
2921;-0.5722;-12.0100;0.0000;0.0000;0.0000;6.9668
2922;-0.4341;-12.0102;0.0000;0.0000;0.0000;6.7196
2923;-0.2939;-12.0103;0.0000;0.0000;0.0000;5.1229
2924;-0.1527;-12.0103;0.0000;0.0000;0.0000;5.4213
2925;-0.0111;-12.0103;0.0000;0.0000;0.0000;6.6225
2926;0.1307;-12.0103;0.0000;0.0000;0.0000;6.8714
2927;0.2725;-12.0103;0.0000;0.0000;0.0000;7.0241
2928;0.4143;-12.0103;0.0000;0.0000;0.0000;6.7787
2929;0.5562;-12.0103;0.0000;0.0000;0.0000;6.6435
2930;0.6981;-12.0104;0.0000;0.0000;0.0000;5.8858
2931;0.8400;-12.0104;0.0000;0.0000;0.0000;5.9029
2932;0.9820;-12.0103;0.0000;0.0000;0.0000;6.1750
2933;1.1245;-12.0104;0.0000;0.0000;0.0000;6.4029
2934;1.2677;-12.0107;0.0000;0.0000;0.0000;5.9904
2935;1.4129;-12.0108;0.0000;0.0000;0.0000;6.1627
2936;-0.7806;-12.1366;0.0000;0.0000;0.0000;6.8810
2937;-0.6422;-12.1340;0.0000;0.0000;0.0000;7.1168
2938;-0.5039;-12.1338;0.0000;0.0000;0.0000;6.7323
2939;-0.3642;-12.1338;0.0000;0.0000;0.0000;6.1982
2940;-0.2234;-12.1338;0.0000;0.0000;0.0000;6.0840
2941;-0.0819;-12.1338;0.0000;0.0000;0.0000;6.2358
2942;0.0598;-12.1337;0.0000;0.0000;0.0000;6.9803
2943;0.2015;-12.1337;0.0000;0.0000;0.0000;7.3093
2944;0.3434;-12.1337;0.0000;0.0000;0.0000;6.9318
2945;0.4852;-12.1337;0.0000;0.0000;0.0000;6.6129
2946;0.6271;-12.1337;0.0000;0.0000;0.0000;6.9698
2947;0.7690;-12.1337;0.0000;0.0000;0.0000;6.1120
2948;0.9110;-12.1337;0.0000;0.0000;0.0000;5.9759
2949;1.0532;-12.1338;0.0000;0.0000;0.0000;6.7196
2950;1.1957;-12.1341;0.0000;0.0000;0.0000;6.6759
2951;1.3376;-12.1350;0.0000;0.0000;0.0000;5.9405
2952;1.4741;-12.1259;0.0000;0.0000;0.0000;4.2752
2953;-0.8367;-12.2560;0.0000;0.0000;0.0000;6.7664
2954;-0.7068;-12.2570;0.0000;0.0000;0.0000;7.0350
2955;-0.5720;-12.2573;0.0000;0.0000;0.0000;6.2603
2956;-0.4338;-12.2573;0.0000;0.0000;0.0000;6.2743
2957;-0.2937;-12.2573;0.0000;0.0000;0.0000;6.0844
2958;-0.1526;-12.2572;0.0000;0.0000;0.0000;5.3924
2959;-0.0110;-12.2572;0.0000;0.0000;0.0000;6.1032
2960;0.1307;-12.2571;0.0000;0.0000;0.0000;6.7165
2961;0.2725;-12.2571;0.0000;0.0000;0.0000;7.2927
2962;0.4144;-12.2571;0.0000;0.0000;0.0000;6.6584
2963;0.5561;-12.2571;0.0000;0.0000;0.0000;6.6465
2964;0.6981;-12.2571;0.0000;0.0000;0.0000;6.5416
2965;0.8401;-12.2570;0.0000;0.0000;0.0000;5.9392
2966;0.9823;-12.2570;0.0000;0.0000;0.0000;5.6990
2967;1.1254;-12.2571;0.0000;0.0000;0.0000;6.7940
2968;1.2705;-12.2577;0.0000;0.0000;0.0000;7.0074
2969;1.4202;-12.2584;0.0000;0.0000;0.0000;5.3731
2970;-0.7798;-12.3765;0.0000;0.0000;0.0000;6.9239
2971;-0.6416;-12.3804;0.0000;0.0000;0.0000;7.0332
2972;-0.5035;-12.3808;0.0000;0.0000;0.0000;6.6509
2973;-0.3639;-12.3807;0.0000;0.0000;0.0000;6.1789
2974;-0.2232;-12.3807;0.0000;0.0000;0.0000;5.7008
2975;-0.0819;-12.3806;0.0000;0.0000;0.0000;5.4484
2976;0.0598;-12.3805;0.0000;0.0000;0.0000;6.6387
2977;0.2016;-12.3805;0.0000;0.0000;0.0000;7.0455
2978;0.3434;-12.3806;0.0000;0.0000;0.0000;6.8053
2979;0.4852;-12.3805;0.0000;0.0000;0.0000;6.8666
2980;0.6271;-12.3804;0.0000;0.0000;0.0000;6.5888
2981;0.7690;-12.3804;0.0000;0.0000;0.0000;6.5039
2982;0.9111;-12.3803;0.0000;0.0000;0.0000;6.7900
2983;1.0534;-12.3802;0.0000;0.0000;0.0000;6.9523
2984;1.1964;-12.3801;0.0000;0.0000;0.0000;6.6689
2985;1.3396;-12.3811;0.0000;0.0000;0.0000;6.2935
2986;1.4767;-12.3919;0.0000;0.0000;0.0000;5.6785
2987;-0.8232;-12.4931;0.0000;0.0000;0.0000;6.4628
2988;-0.7039;-12.5032;0.0000;0.0000;0.0000;7.0446
2989;-0.5713;-12.5045;0.0000;0.0000;0.0000;5.8552
2990;-0.4336;-12.5042;0.0000;0.0000;0.0000;6.5862
2991;-0.2936;-12.5040;0.0000;0.0000;0.0000;5.6579
2992;-0.1526;-12.5039;0.0000;0.0000;0.0000;5.7620
2993;-0.0111;-12.5039;0.0000;0.0000;0.0000;5.7012
2994;0.1306;-12.5039;0.0000;0.0000;0.0000;6.0477
2995;0.2725;-12.5039;0.0000;0.0000;0.0000;6.3806
2996;0.4144;-12.5038;0.0000;0.0000;0.0000;7.0319
2997;0.5562;-12.5038;0.0000;0.0000;0.0000;6.7222
2998;0.6981;-12.5038;0.0000;0.0000;0.0000;7.0661
2999;0.8401;-12.5037;0.0000;0.0000;0.0000;6.8570
3000;0.9822;-12.5036;0.0000;0.0000;0.0000;7.0914
3001;1.1248;-12.5031;0.0000;0.0000;0.0000;5.8005
3002;1.2687;-12.5024;0.0000;0.0000;0.0000;6.5376
3003;1.4170;-12.5073;0.0000;0.0000;0.0000;5.5586
3004;-0.7885;-12.6234;0.0000;0.0000;0.0000;6.4059
3005;-0.6452;-12.6276;0.0000;0.0000;0.0000;7.1334
3006;-0.5048;-12.6277;0.0000;0.0000;0.0000;6.0674
3007;-0.3643;-12.6274;0.0000;0.0000;0.0000;6.2244
3008;-0.2233;-12.6273;0.0000;0.0000;0.0000;6.6277
3009;-0.0819;-12.6272;0.0000;0.0000;0.0000;6.0101
3010;0.0598;-12.6273;0.0000;0.0000;0.0000;5.8058
3011;0.2016;-12.6273;0.0000;0.0000;0.0000;5.9633
3012;0.3435;-12.6273;0.0000;0.0000;0.0000;6.8438
3013;0.4853;-12.6272;0.0000;0.0000;0.0000;7.1601
3014;0.6272;-12.6271;0.0000;0.0000;0.0000;6.7638
3015;0.7691;-12.6271;0.0000;0.0000;0.0000;7.0945
3016;0.9110;-12.6270;0.0000;0.0000;0.0000;6.8950
3017;1.0524;-12.6266;0.0000;0.0000;0.0000;6.4803
3018;1.1926;-12.6255;0.0000;0.0000;0.0000;6.4554
3019;1.3296;-12.6249;0.0000;0.0000;0.0000;6.0840
3020;1.4616;-12.6299;0.0000;0.0000;0.0000;5.9711
3021;-0.8264;-12.7500;0.0000;0.0000;0.0000;6.7327
3022;-0.7072;-12.7510;0.0000;0.0000;0.0000;6.6286
3023;-0.5728;-12.7509;0.0000;0.0000;0.0000;6.0004
3024;-0.4342;-12.7508;0.0000;0.0000;0.0000;5.5560
3025;-0.2937;-12.7507;0.0000;0.0000;0.0000;6.4633
3026;-0.1526;-12.7506;0.0000;0.0000;0.0000;6.8228
3027;-0.0110;-12.7507;0.0000;0.0000;0.0000;6.4873
3028;0.1308;-12.7507;0.0000;0.0000;0.0000;5.8434
3029;0.2726;-12.7507;0.0000;0.0000;0.0000;6.6881
3030;0.4144;-12.7506;0.0000;0.0000;0.0000;6.6339
3031;0.5563;-12.7505;0.0000;0.0000;0.0000;6.8176
3032;0.6982;-12.7506;0.0000;0.0000;0.0000;6.6999
3033;0.8400;-12.7505;0.0000;0.0000;0.0000;6.7542
3034;0.9814;-12.7503;0.0000;0.0000;0.0000;6.5595
3035;1.1212;-12.7498;0.0000;0.0000;0.0000;6.8250
3036;1.2563;-12.7495;0.0000;0.0000;0.0000;6.9256
3037;1.3821;-12.7523;0.0000;0.0000;0.0000;6.2393
3038;1.4908;-12.7569;0.0000;0.0000;0.0000;5.6387
3039;-0.7875;-12.8793;0.0000;0.0000;0.0000;6.9759
3040;-0.6448;-12.8743;0.0000;0.0000;0.0000;6.3635
3041;-0.5046;-12.8740;0.0000;0.0000;0.0000;5.4523
3042;-0.3643;-12.8740;0.0000;0.0000;0.0000;5.7760
3043;-0.2232;-12.8740;0.0000;0.0000;0.0000;6.4370
3044;-0.0818;-12.8740;0.0000;0.0000;0.0000;5.9125
3045;0.0599;-12.8740;0.0000;0.0000;0.0000;5.9545
3046;0.2017;-12.8741;0.0000;0.0000;0.0000;6.8731
3047;0.3435;-12.8740;0.0000;0.0000;0.0000;6.8998
3048;0.4854;-12.8740;0.0000;0.0000;0.0000;6.3202
3049;0.6273;-12.8740;0.0000;0.0000;0.0000;6.4729
3050;0.7691;-12.8739;0.0000;0.0000;0.0000;6.3071
3051;0.9107;-12.8739;0.0000;0.0000;0.0000;6.1006
3052;1.0515;-12.8738;0.0000;0.0000;0.0000;5.3395
3053;1.1896;-12.8736;0.0000;0.0000;0.0000;5.6234
3054;1.3235;-12.8744;0.0000;0.0000;0.0000;6.5354
3055;1.4559;-12.8810;0.0000;0.0000;0.0000;6.8482
3056;-0.8210;-13.0118;0.0000;0.0000;0.0000;6.9694
3057;-0.7029;-12.9994;0.0000;0.0000;0.0000;6.8460
3058;-0.5709;-12.9975;0.0000;0.0000;0.0000;5.8128
3059;-0.4334;-12.9975;0.0000;0.0000;0.0000;6.3268
3060;-0.2935;-12.9975;0.0000;0.0000;0.0000;6.5779
3061;-0.1525;-12.9975;0.0000;0.0000;0.0000;5.9689
3062;-0.0109;-12.9974;0.0000;0.0000;0.0000;6.0210
3063;0.1309;-12.9974;0.0000;0.0000;0.0000;6.2804
3064;0.2728;-12.9974;0.0000;0.0000;0.0000;6.8828
3065;0.4145;-12.9974;0.0000;0.0000;0.0000;7.0131
3066;0.5564;-12.9973;0.0000;0.0000;0.0000;6.7485
3067;0.6982;-12.9973;0.0000;0.0000;0.0000;6.0612
3068;0.8399;-12.9972;0.0000;0.0000;0.0000;6.4112
3069;0.9810;-12.9973;0.0000;0.0000;0.0000;5.9891
3070;1.1200;-12.9973;0.0000;0.0000;0.0000;5.1360
3071;1.2535;-12.9974;0.0000;0.0000;0.0000;5.1146
3072;1.3773;-12.9984;0.0000;0.0000;0.0000;6.2463
3073;1.4871;-13.0113;0.0000;0.0000;0.0000;6.0424
3074;-0.7780;-13.1279;0.0000;0.0000;0.0000;6.9864
3075;-0.6407;-13.1221;0.0000;0.0000;0.0000;5.5516
3076;-0.5031;-13.1211;0.0000;0.0000;0.0000;6.1015
3077;-0.3637;-13.1210;0.0000;0.0000;0.0000;6.6549
3078;-0.2230;-13.1210;0.0000;0.0000;0.0000;6.6321
3079;-0.0817;-13.1208;0.0000;0.0000;0.0000;6.3854
3080;0.0599;-13.1208;0.0000;0.0000;0.0000;6.0879
3081;0.2018;-13.1208;0.0000;0.0000;0.0000;6.2017
3082;0.3437;-13.1208;0.0000;0.0000;0.0000;6.2493
3083;0.4855;-13.1208;0.0000;0.0000;0.0000;5.9781
3084;0.6272;-13.1207;0.0000;0.0000;0.0000;5.8723
3085;0.7691;-13.1207;0.0000;0.0000;0.0000;6.5468
3086;0.9106;-13.1207;0.0000;0.0000;0.0000;6.6916
3087;1.0509;-13.1208;0.0000;0.0000;0.0000;6.0586
3088;1.1877;-13.1212;0.0000;0.0000;0.0000;5.6019
3089;1.3186;-13.1217;0.0000;0.0000;0.0000;5.1815
3090;1.4443;-13.1212;0.0000;0.0000;0.0000;5.1982
3091;-0.8338;-13.2510;0.0000;0.0000;0.0000;6.4479
3092;-0.7049;-13.2461;0.0000;0.0000;0.0000;6.1072
3093;-0.5710;-13.2449;0.0000;0.0000;0.0000;5.6815
3094;-0.4332;-13.2444;0.0000;0.0000;0.0000;5.8806
3095;-0.2934;-13.2443;0.0000;0.0000;0.0000;6.6995
3096;-0.1524;-13.2442;0.0000;0.0000;0.0000;6.9659
3097;-0.0108;-13.2442;0.0000;0.0000;0.0000;5.3408
3098;0.1309;-13.2442;0.0000;0.0000;0.0000;5.0687
3099;0.2727;-13.2441;0.0000;0.0000;0.0000;6.3815
3100;0.4146;-13.2441;0.0000;0.0000;0.0000;5.6164
3101;0.5564;-13.2442;0.0000;0.0000;0.0000;5.9497
3102;0.6982;-13.2441;0.0000;0.0000;0.0000;6.4720
3103;0.8399;-13.2441;0.0000;0.0000;0.0000;6.5932
3104;0.9809;-13.2442;0.0000;0.0000;0.0000;6.5192
3105;1.1196;-13.2448;0.0000;0.0000;0.0000;6.7861
3106;1.2531;-13.2457;0.0000;0.0000;0.0000;5.8193
3107;1.3774;-13.2451;0.0000;0.0000;0.0000;5.5219
3108;1.4881;-13.2286;0.0000;0.0000;0.0000;5.4545
3109;-0.7775;-13.3668;0.0000;0.0000;0.0000;7.3185
3110;-0.6405;-13.3686;0.0000;0.0000;0.0000;6.9891
3111;-0.5029;-13.3681;0.0000;0.0000;0.0000;6.8307
3112;-0.3636;-13.3678;0.0000;0.0000;0.0000;6.7052
3113;-0.2230;-13.3676;0.0000;0.0000;0.0000;6.5696
3114;-0.0816;-13.3675;0.0000;0.0000;0.0000;6.2248
3115;0.0601;-13.3675;0.0000;0.0000;0.0000;5.1155
3116;0.2018;-13.3675;0.0000;0.0000;0.0000;6.3771
3117;0.3436;-13.3674;0.0000;0.0000;0.0000;6.9055
3118;0.4855;-13.3675;0.0000;0.0000;0.0000;6.1636
3119;0.6273;-13.3675;0.0000;0.0000;0.0000;6.1177
3120;0.7691;-13.3675;0.0000;0.0000;0.0000;6.5560
3121;0.9107;-13.3675;0.0000;0.0000;0.0000;7.2279
3122;1.0513;-13.3679;0.0000;0.0000;0.0000;6.2835
3123;1.1893;-13.3687;0.0000;0.0000;0.0000;5.3001
3124;1.3242;-13.3689;0.0000;0.0000;0.0000;5.3666
3125;1.4586;-13.3604;0.0000;0.0000;0.0000;5.4746
3126;-0.8245;-13.4797;0.0000;0.0000;0.0000;7.6439
3127;-0.7039;-13.4921;0.0000;0.0000;0.0000;7.2498
3128;-0.5709;-13.4918;0.0000;0.0000;0.0000;7.2165
3129;-0.4332;-13.4913;0.0000;0.0000;0.0000;7.0087
3130;-0.2934;-13.4910;0.0000;0.0000;0.0000;7.4221
3131;-0.1524;-13.4909;0.0000;0.0000;0.0000;7.2822
3132;-0.0108;-13.4908;0.0000;0.0000;0.0000;6.6172
3133;0.1309;-13.4908;0.0000;0.0000;0.0000;6.8933
3134;0.2727;-13.4909;0.0000;0.0000;0.0000;6.5306
3135;0.4147;-13.4909;0.0000;0.0000;0.0000;6.7563
3136;0.5565;-13.4909;0.0000;0.0000;0.0000;6.8788
3137;0.6982;-13.4909;0.0000;0.0000;0.0000;6.0892
3138;0.8399;-13.4908;0.0000;0.0000;0.0000;6.1010
3139;0.9811;-13.4910;0.0000;0.0000;0.0000;6.1417
3140;1.1207;-13.4913;0.0000;0.0000;0.0000;4.5626
3141;1.2566;-13.4917;0.0000;0.0000;0.0000;4.6115
3142;1.3848;-13.4901;0.0000;0.0000;0.0000;5.9681
3143;1.4955;-13.4878;0.0000;0.0000;0.0000;5.4339
3144;-0.7882;-13.6124;0.0000;0.0000;0.0000;6.8898
3145;-0.6441;-13.6145;0.0000;0.0000;0.0000;7.2791
3146;-0.5040;-13.6146;0.0000;0.0000;0.0000;7.0455
3147;-0.3638;-13.6144;0.0000;0.0000;0.0000;7.1916
3148;-0.2230;-13.6144;0.0000;0.0000;0.0000;6.2808
3149;-0.0816;-13.6143;0.0000;0.0000;0.0000;6.3570
3150;0.0601;-13.6143;0.0000;0.0000;0.0000;6.7874
3151;0.2019;-13.6143;0.0000;0.0000;0.0000;6.5687
3152;0.3438;-13.6143;0.0000;0.0000;0.0000;5.7087
3153;0.4857;-13.6143;0.0000;0.0000;0.0000;5.8521
3154;0.6275;-13.6141;0.0000;0.0000;0.0000;6.7957
3155;0.7693;-13.6140;0.0000;0.0000;0.0000;6.0822
3156;0.9108;-13.6142;0.0000;0.0000;0.0000;5.8692
3157;1.0515;-13.6146;0.0000;0.0000;0.0000;5.9493
3158;1.1907;-13.6149;0.0000;0.0000;0.0000;5.0595
3159;1.3271;-13.6143;0.0000;0.0000;0.0000;5.4366
3160;1.4619;-13.6144;0.0000;0.0000;0.0000;5.6470
3161;-0.8212;-13.7403;0.0000;0.0000;0.0000;6.7896
3162;-0.7031;-13.7360;0.0000;0.0000;0.0000;6.9243
3163;-0.5707;-13.7374;0.0000;0.0000;0.0000;7.1465
3164;-0.4331;-13.7376;0.0000;0.0000;0.0000;6.7235
3165;-0.2931;-13.7376;0.0000;0.0000;0.0000;7.0118
3166;-0.1522;-13.7376;0.0000;0.0000;0.0000;6.1129
3167;-0.0107;-13.7377;0.0000;0.0000;0.0000;6.0521
3168;0.1309;-13.7376;0.0000;0.0000;0.0000;6.0048
3169;0.2728;-13.7374;0.0000;0.0000;0.0000;6.2940
3170;0.4147;-13.7375;0.0000;0.0000;0.0000;5.4348
3171;0.5566;-13.7376;0.0000;0.0000;0.0000;6.0381
3172;0.6985;-13.7375;0.0000;0.0000;0.0000;5.4344
3173;0.8402;-13.7375;0.0000;0.0000;0.0000;5.0144
3174;0.9813;-13.7376;0.0000;0.0000;0.0000;5.1562
3175;1.1209;-13.7379;0.0000;0.0000;0.0000;5.8373
3176;1.2564;-13.7377;0.0000;0.0000;0.0000;5.9707
3177;1.3834;-13.7374;0.0000;0.0000;0.0000;5.8018
3178;1.4953;-13.7412;0.0000;0.0000;0.0000;5.1955
3179;-0.7774;-13.8600;0.0000;0.0000;0.0000;5.9558
3180;-0.6404;-13.8604;0.0000;0.0000;0.0000;5.5499
3181;-0.5028;-13.8608;0.0000;0.0000;0.0000;6.4108
3182;-0.3634;-13.8608;0.0000;0.0000;0.0000;6.4143
3183;-0.2228;-13.8608;0.0000;0.0000;0.0000;6.3657
3184;-0.0814;-13.8607;0.0000;0.0000;0.0000;5.9567
3185;0.0602;-13.8607;0.0000;0.0000;0.0000;6.0577
3186;0.2020;-13.8606;0.0000;0.0000;0.0000;6.2664
3187;0.3439;-13.8606;0.0000;0.0000;0.0000;6.0801
3188;0.4857;-13.8606;0.0000;0.0000;0.0000;5.7660
3189;0.6276;-13.8606;0.0000;0.0000;0.0000;6.0525
3190;0.7694;-13.8606;0.0000;0.0000;0.0000;5.8920
3191;0.9109;-13.8606;0.0000;0.0000;0.0000;5.6002
3192;1.0515;-13.8606;0.0000;0.0000;0.0000;5.1181
3193;1.1897;-13.8608;0.0000;0.0000;0.0000;5.5451
3194;1.3239;-13.8605;0.0000;0.0000;0.0000;5.0144
3195;1.4553;-13.8609;0.0000;0.0000;0.0000;5.4204
3196;-0.8316;-13.9767;0.0000;0.0000;0.0000;5.7892
3197;-0.7039;-13.9820;0.0000;0.0000;0.0000;5.4169
3198;-0.5703;-13.9833;0.0000;0.0000;0.0000;6.1960
3199;-0.4326;-13.9836;0.0000;0.0000;0.0000;6.5687
3200;-0.2928;-13.9834;0.0000;0.0000;0.0000;6.7423
3201;-0.1518;-13.9833;0.0000;0.0000;0.0000;5.9707
3202;-0.0102;-13.9831;0.0000;0.0000;0.0000;5.4536
3203;0.1315;-13.9832;0.0000;0.0000;0.0000;4.9803
3204;0.2734;-13.9832;0.0000;0.0000;0.0000;4.7778
3205;0.4153;-13.9829;0.0000;0.0000;0.0000;5.2721
3206;0.5571;-13.9831;0.0000;0.0000;0.0000;5.5490
3207;0.6989;-13.9831;0.0000;0.0000;0.0000;5.7953
3208;0.8407;-13.9830;0.0000;0.0000;0.0000;5.4821
3209;0.9816;-13.9831;0.0000;0.0000;0.0000;5.3478
3210;1.1207;-13.9828;0.0000;0.0000;0.0000;5.2340
3211;1.2563;-13.9822;0.0000;0.0000;0.0000;5.7292
3212;1.3858;-13.9808;0.0000;0.0000;0.0000;4.9886
3213;1.5083;-13.9776;0.0000;0.0000;0.0000;4.8631
3214;-0.7750;-14.0986;0.0000;0.0000;0.0000;5.6592
3215;-0.6382;-14.1043;0.0000;0.0000;0.0000;5.5245
3216;-0.5006;-14.1053;0.0000;0.0000;0.0000;6.0477
3217;-0.3611;-14.1050;0.0000;0.0000;0.0000;6.7397
3218;-0.2203;-14.1046;0.0000;0.0000;0.0000;6.1737
3219;-0.0789;-14.1046;0.0000;0.0000;0.0000;5.4829
3220;0.0628;-14.1050;0.0000;0.0000;0.0000;4.6654
3221;0.2044;-14.1051;0.0000;0.0000;0.0000;3.8858
3222;0.3464;-14.1045;0.0000;0.0000;0.0000;4.9007
3223;0.4882;-14.1042;0.0000;0.0000;0.0000;5.1207
3224;0.6302;-14.1045;0.0000;0.0000;0.0000;5.2743
3225;0.7719;-14.1046;0.0000;0.0000;0.0000;5.4396
3226;0.9133;-14.1044;0.0000;0.0000;0.0000;5.1487
3227;1.0532;-14.1041;0.0000;0.0000;0.0000;4.4974
3228;1.1901;-14.1022;0.0000;0.0000;0.0000;4.7043
3229;1.3246;-14.1002;0.0000;0.0000;0.0000;4.3902
3230;1.4570;-14.0958;0.0000;0.0000;0.0000;3.8854
3231;-0.8168;-14.2122;0.0000;0.0000;0.0000;5.9917
3232;-0.6954;-14.2234;0.0000;0.0000;0.0000;6.3338
3233;-0.5617;-14.2255;0.0000;0.0000;0.0000;6.3066
3234;-0.4234;-14.2249;0.0000;0.0000;0.0000;6.2502
3235;-0.2831;-14.2246;0.0000;0.0000;0.0000;5.6811
3236;-0.1416;-14.2245;0.0000;0.0000;0.0000;5.3500
3237;0.0001;-14.2244;0.0000;0.0000;0.0000;5.4401
3238;0.1419;-14.2243;0.0000;0.0000;0.0000;4.7047
3239;0.2837;-14.2242;0.0000;0.0000;0.0000;4.7275
3240;0.4256;-14.2241;0.0000;0.0000;0.0000;5.0941
3241;0.5677;-14.2241;0.0000;0.0000;0.0000;5.1640
3242;0.7095;-14.2241;0.0000;0.0000;0.0000;4.5704
3243;0.8510;-14.2240;0.0000;0.0000;0.0000;4.4781
3244;0.9916;-14.2239;0.0000;0.0000;0.0000;4.1330
3245;1.1291;-14.2231;0.0000;0.0000;0.0000;4.2572
3246;1.2604;-14.2176;0.0000;0.0000;0.0000;4.7288
3247;1.3881;-14.2146;0.0000;0.0000;0.0000;4.1457
3248;1.5002;-14.2108;0.0000;0.0000;0.0000;3.1360
3249;-0.7701;-14.3361;0.0000;0.0000;0.0000;4.9108
3250;-0.6194;-14.3427;0.0000;0.0000;0.0000;5.5136
3251;-0.4755;-14.3420;0.0000;0.0000;0.0000;5.8731
3252;-0.3335;-14.3413;0.0000;0.0000;0.0000;5.0210
3253;-0.1916;-14.3410;0.0000;0.0000;0.0000;4.4068
3254;-0.0496;-14.3409;0.0000;0.0000;0.0000;4.3570
3255;0.0923;-14.3409;0.0000;0.0000;0.0000;4.7738
3256;0.2342;-14.3408;0.0000;0.0000;0.0000;4.4943
3257;0.3764;-14.3407;0.0000;0.0000;0.0000;5.1400
3258;0.5185;-14.3406;0.0000;0.0000;0.0000;4.8775
3259;0.6606;-14.3407;0.0000;0.0000;0.0000;4.0477
3260;0.8026;-14.3405;0.0000;0.0000;0.0000;4.4794
3261;0.9440;-14.3405;0.0000;0.0000;0.0000;4.4593
3262;1.0836;-14.3408;0.0000;0.0000;0.0000;4.3211
3263;1.2185;-14.3406;0.0000;0.0000;0.0000;4.8281
3264;1.3401;-14.3269;0.0000;0.0000;0.0000;4.3421
3265;1.4644;-14.3344;0.0000;0.0000;0.0000;3.7747
