# Units: length:mm angle:deg time:s strain:% 
# Stage: image-000002
stage;index;relative_time;date
"image-000002";3;2.0000;"2022-09-26T12:00:52.387"
# Name : Surface_xy
id;x;y;z;epsilon_x;epsilon_y
0;-4.5187;5.8584;0.0000;0.0080;-0.0028
1;-4.2064;5.8586;0.0000;0.0097;-0.0051
2;-3.8940;5.8588;0.0000;0.0123;0.0110
3;-3.5816;5.8590;0.0000;0.0188;0.0085
4;-3.2693;5.8591;0.0000;-0.0030;-0.0196
5;-2.9570;5.8593;0.0000;-0.0019;-0.0220
6;-2.6447;5.8595;0.0000;0.0224;-0.0121
7;-2.3323;5.8596;0.0000;0.0128;-0.0039
8;-2.0200;5.8597;0.0000;0.0092;-0.0236
9;-1.7076;5.8599;0.0000;0.0131;-0.0218
10;-1.3952;5.8601;0.0000;0.0065;-0.0184
11;-1.0829;5.8603;0.0000;0.0059;-0.0084
12;-0.7706;5.8605;0.0000;-0.0089;-0.0139
13;-0.4583;5.8607;0.0000;-0.0068;-0.0113
14;-0.1460;5.8609;0.0000;-0.0046;-0.0067
15;0.1663;5.8612;0.0000;-0.0216;-0.0061
16;0.4785;5.8615;0.0000;-0.0270;-0.0094
17;0.7907;5.8617;0.0000;-0.0280;0.0021
18;1.1030;5.8619;0.0000;-0.0346;0.0102
19;1.4152;5.8621;0.0000;-0.0394;0.0109
20;1.7274;5.8624;0.0000;-0.0223;-0.0121
21;2.0397;5.8627;0.0000;-0.0199;-0.0116
22;2.3519;5.8630;0.0000;-0.0406;0.0038
23;2.6640;5.8631;0.0000;-0.0536;-0.0183
24;2.9762;5.8634;0.0000;-0.0389;-0.0090
25;3.2884;5.8637;0.0000;-0.0310;0.0049
26;3.6006;5.8640;0.0000;-0.0395;0.0105
27;3.8497;5.7550;0.0000;-0.0293;-0.0001
28;3.8487;5.4427;0.0000;-0.0325;-0.0018
29;3.8478;5.1304;0.0000;-0.0383;-0.0086
30;3.8469;4.8181;0.0000;-0.0130;0.0005
31;3.8460;4.5058;0.0000;-0.0108;0.0068
32;3.8451;4.1934;0.0000;-0.0157;0.0140
33;3.8441;3.8811;0.0000;-0.0350;0.0271
34;3.8431;3.5686;0.0000;-0.0329;0.0478
35;3.8422;3.2562;0.0000;-0.0245;0.0443
36;3.8413;2.9437;0.0000;-0.0295;0.0471
37;3.8404;2.6313;0.0000;-0.0411;0.0460
38;3.8395;2.3188;0.0000;-0.0372;0.0375
39;3.8387;2.0064;0.0000;-0.0246;0.0289
40;3.8378;1.6940;0.0000;-0.0315;0.0399
41;3.8369;1.3815;0.0000;-0.0246;0.0337
42;3.8360;1.0691;0.0000;-0.0393;0.0249
43;3.8351;0.7567;0.0000;-0.0462;0.0154
44;3.8342;0.4444;0.0000;-0.0234;0.0167
45;3.8333;0.1320;0.0000;-0.0440;0.0062
46;3.8325;-0.1803;0.0000;-0.0302;-0.0317
47;3.8317;-0.4924;0.0000;-0.0345;-0.0258
48;3.8308;-0.8047;0.0000;-0.0446;-0.0194
49;3.8301;-1.1170;0.0000;-0.0360;-0.0323
50;3.8291;-1.4292;0.0000;-0.0533;-0.0387
51;3.8283;-1.7414;0.0000;-0.0419;-0.0457
52;3.8275;-2.0535;0.0000;-0.0269;-0.0375
53;3.8266;-2.3657;0.0000;-0.0271;-0.0309
54;3.8258;-2.6779;0.0000;-0.0205;-0.0388
55;3.8249;-2.9901;0.0000;-0.0276;-0.0456
56;3.8240;-3.3023;0.0000;-0.0300;-0.0396
57;3.8231;-3.6145;0.0000;-0.0222;-0.0264
58;3.8222;-3.9268;0.0000;-0.0418;-0.0195
59;3.8213;-4.2390;0.0000;-0.0523;-0.0290
60;3.8203;-4.5512;0.0000;-0.0596;-0.0229
61;3.8195;-4.8635;0.0000;-0.0582;-0.0170
62;3.8186;-5.1757;0.0000;-0.0439;-0.0174
63;3.5532;-5.2480;0.0000;-0.0309;-0.0130
64;3.2409;-5.2497;0.0000;-0.0180;-0.0053
65;2.9287;-5.2513;0.0000;-0.0229;-0.0282
66;2.6165;-5.2531;0.0000;-0.0232;-0.0275
67;2.3042;-5.2549;0.0000;-0.0121;-0.0153
68;1.9919;-5.2566;0.0000;-0.0081;-0.0275
69;1.6796;-5.2584;0.0000;-0.0050;-0.0202
70;1.3673;-5.2601;0.0000;-0.0085;-0.0147
71;1.0550;-5.2619;0.0000;-0.0154;-0.0245
72;0.7428;-5.2636;0.0000;-0.0156;-0.0323
73;0.4305;-5.2654;0.0000;-0.0107;-0.0204
74;0.1183;-5.2671;0.0000;-0.0110;-0.0195
75;-0.1941;-5.2688;0.0000;-0.0029;-0.0222
76;-0.5064;-5.2706;0.0000;-0.0009;-0.0022
77;-0.8187;-5.2725;0.0000;-0.0076;0.0205
78;-1.1310;-5.2742;0.0000;-0.0048;0.0079
79;-1.4432;-5.2760;0.0000;-0.0151;-0.0163
80;-1.7555;-5.2778;0.0000;-0.0068;-0.0028
81;-2.0678;-5.2796;0.0000;0.0029;0.0155
82;-2.3801;-5.2815;0.0000;-0.0045;0.0439
83;-2.6924;-5.2833;0.0000;-0.0066;0.0561
84;-3.0047;-5.2851;0.0000;0.0021;0.0275
85;-3.3170;-5.2869;0.0000;0.0053;0.0273
86;-3.6293;-5.2886;0.0000;-0.0065;0.0282
87;-3.9416;-5.2904;0.0000;-0.0174;0.0335
88;-4.2539;-5.2921;0.0000;-0.0059;0.0333
89;-4.5650;-5.2701;0.0000;0.0049;0.0169
90;-4.6153;-5.0029;0.0000;-0.0071;0.0188
91;-4.6156;-4.6905;0.0000;-0.0036;0.0230
92;-4.6159;-4.3781;0.0000;-0.0113;0.0296
93;-4.6163;-4.0657;0.0000;-0.0053;0.0357
94;-4.6165;-3.7533;0.0000;-0.0001;0.0466
95;-4.6168;-3.4408;0.0000;0.0131;0.0456
96;-4.6171;-3.1284;0.0000;0.0103;0.0476
97;-4.6174;-2.8159;0.0000;-0.0019;0.0583
98;-4.6176;-2.5034;0.0000;-0.0086;0.0412
99;-4.6179;-2.1910;0.0000;-0.0055;0.0056
100;-4.6182;-1.8787;0.0000;-0.0081;0.0060
101;-4.6184;-1.5663;0.0000;-0.0134;0.0177
102;-4.6187;-1.2539;0.0000;0.0017;0.0073
103;-4.6190;-0.9416;0.0000;-0.0270;-0.0222
104;-4.6193;-0.6294;0.0000;-0.0314;-0.0244
105;-4.6198;-0.3172;0.0000;-0.0042;-0.0381
106;-4.6201;-0.0050;0.0000;0.0078;-0.0531
107;-4.6204;0.3071;0.0000;-0.0061;-0.0430
108;-4.6208;0.6194;0.0000;-0.0053;-0.0365
109;-4.6212;0.9315;0.0000;-0.0143;-0.0381
110;-4.6215;1.2438;0.0000;-0.0031;-0.0167
111;-4.6218;1.5560;0.0000;-0.0051;-0.0143
112;-4.6221;1.8683;0.0000;-0.0043;-0.0027
113;-4.6225;2.1807;0.0000;0.0083;0.0014
114;-4.6228;2.4930;0.0000;-0.0033;-0.0012
115;-4.6232;2.8053;0.0000;0.0090;0.0023
116;-4.6234;3.1176;0.0000;-0.0127;0.0073
117;-4.6237;3.4300;0.0000;0.0022;0.0227
118;-4.6242;3.7424;0.0000;0.0351;0.0460
119;-4.6245;4.0548;0.0000;0.0234;0.0346
120;-4.6247;4.3672;0.0000;-0.0086;0.0150
121;-4.6250;4.6796;0.0000;-0.0153;0.0225
122;-4.6254;4.9920;0.0000;0.0155;0.0204
123;-4.6257;5.3043;0.0000;0.0211;0.0122
124;-4.6260;5.6167;0.0000;0.0117;0.0034
125;-4.3274;5.5822;0.0000;0.0115;-0.0032
126;-4.0249;5.5782;0.0000;0.0079;0.0000
127;-3.7189;5.5757;0.0000;0.0205;0.0128
128;-3.4097;5.5748;0.0000;0.0134;0.0096
129;-3.0990;5.5747;0.0000;-0.0061;-0.0055
130;-2.7874;5.5746;0.0000;0.0131;-0.0096
131;-2.4753;5.5746;0.0000;0.0227;-0.0052
132;-2.1633;5.5747;0.0000;0.0121;-0.0113
133;-1.8511;5.5748;0.0000;0.0114;-0.0194
134;-1.5390;5.5749;0.0000;0.0046;-0.0171
135;-1.2269;5.5750;0.0000;0.0019;-0.0095
136;-0.9147;5.5752;0.0000;-0.0063;-0.0075
137;-0.6027;5.5752;0.0000;-0.0134;-0.0130
138;-0.2906;5.5753;0.0000;-0.0005;-0.0153
139;0.0215;5.5755;0.0000;-0.0154;-0.0158
140;0.3336;5.5757;0.0000;-0.0282;-0.0156
141;0.6456;5.5759;0.0000;-0.0271;-0.0117
142;0.9576;5.5760;0.0000;-0.0314;-0.0041
143;1.2696;5.5761;0.0000;-0.0457;0.0014
144;1.5816;5.5763;0.0000;-0.0320;-0.0049
145;1.8936;5.5765;0.0000;-0.0185;-0.0103
146;2.2055;5.5768;0.0000;-0.0260;-0.0074
147;2.5166;5.5770;0.0000;-0.0431;-0.0114
148;2.8245;5.5776;0.0000;-0.0454;-0.0127
149;3.1241;5.5788;0.0000;-0.0323;0.0000
150;3.4048;5.5812;0.0000;-0.0375;0.0046
151;3.6470;5.5733;0.0000;-0.0375;-0.0006
152;-4.4241;5.3002;0.0000;0.0197;0.0146
153;-4.1500;5.2987;0.0000;0.0108;0.0135
154;-3.8572;5.2943;0.0000;0.0117;0.0095
155;-3.5541;5.2928;0.0000;0.0230;0.0095
156;-3.2459;5.2924;0.0000;0.0060;0.0148
157;-2.9354;5.2924;0.0000;0.0083;0.0142
158;-2.6239;5.2923;0.0000;0.0195;0.0022
159;-2.3120;5.2923;0.0000;0.0202;-0.0070
160;-2.0000;5.2924;0.0000;0.0110;-0.0110
161;-1.6880;5.2924;0.0000;0.0021;-0.0131
162;-1.3760;5.2924;0.0000;-0.0033;-0.0073
163;-1.0640;5.2925;0.0000;-0.0056;-0.0017
164;-0.7521;5.2925;0.0000;-0.0173;-0.0062
165;-0.4402;5.2926;0.0000;-0.0082;-0.0159
166;-0.1281;5.2927;0.0000;-0.0066;-0.0211
167;0.1838;5.2928;0.0000;-0.0314;-0.0218
168;0.4957;5.2929;0.0000;-0.0290;-0.0160
169;0.8076;5.2930;0.0000;-0.0238;-0.0137
170;1.1196;5.2930;0.0000;-0.0385;-0.0206
171;1.4314;5.2931;0.0000;-0.0412;-0.0194
172;1.7433;5.2933;0.0000;-0.0334;-0.0132
173;2.0551;5.2935;0.0000;-0.0257;-0.0038
174;2.3666;5.2936;0.0000;-0.0263;0.0041
175;2.6764;5.2938;0.0000;-0.0371;0.0002
176;2.9816;5.2941;0.0000;-0.0345;-0.0055
177;3.2793;5.2946;0.0000;-0.0316;-0.0077
178;3.5712;5.2964;0.0000;-0.0396;-0.0069
179;-4.3051;5.0262;0.0000;0.0181;0.0279
180;-4.0054;5.0165;0.0000;0.0134;0.0275
181;-3.7034;5.0138;0.0000;0.0207;0.0132
182;-3.3969;5.0134;0.0000;0.0186;0.0114
183;-3.0875;5.0134;0.0000;0.0148;0.0228
184;-2.7765;5.0134;0.0000;0.0144;0.0240
185;-2.4650;5.0134;0.0000;0.0170;0.0122
186;-2.1531;5.0134;0.0000;0.0110;0.0075
187;-1.8412;5.0134;0.0000;-0.0042;0.0072
188;-1.5292;5.0134;0.0000;-0.0056;0.0026
189;-1.2173;5.0134;0.0000;-0.0007;0.0007
190;-0.9054;5.0134;0.0000;-0.0054;-0.0037
191;-0.5934;5.0135;0.0000;-0.0121;-0.0165
192;-0.2815;5.0135;0.0000;-0.0179;-0.0170
193;0.0304;5.0136;0.0000;-0.0369;-0.0064
194;0.3422;5.0137;0.0000;-0.0340;-0.0085
195;0.6541;5.0137;0.0000;-0.0163;-0.0115
196;0.9660;5.0137;0.0000;-0.0231;-0.0131
197;1.2779;5.0138;0.0000;-0.0389;-0.0157
198;1.5897;5.0138;0.0000;-0.0399;-0.0110
199;1.9015;5.0139;0.0000;-0.0352;-0.0020
200;2.2131;5.0139;0.0000;-0.0214;0.0069
201;2.5236;5.0139;0.0000;-0.0308;0.0090
202;2.8303;5.0140;0.0000;-0.0384;0.0059
203;3.1273;5.0142;0.0000;-0.0298;-0.0081
204;3.4052;5.0119;0.0000;-0.0359;-0.0117
205;3.6445;5.0126;0.0000;-0.0350;-0.0043
206;-4.3982;4.7680;0.0000;0.0104;0.0237
207;-4.1387;4.7420;0.0000;0.0229;0.0298
208;-3.8499;4.7375;0.0000;0.0180;0.0320
209;-3.5484;4.7372;0.0000;0.0176;0.0273
210;-3.2411;4.7374;0.0000;0.0217;0.0268
211;-2.9310;4.7375;0.0000;0.0239;0.0341
212;-2.6197;4.7376;0.0000;0.0138;0.0342
213;-2.3080;4.7376;0.0000;0.0087;0.0244
214;-1.9962;4.7376;0.0000;-0.0055;0.0195
215;-1.6843;4.7376;0.0000;-0.0047;0.0148
216;-1.3724;4.7375;0.0000;0.0026;0.0048
217;-1.0604;4.7375;0.0000;-0.0009;-0.0008
218;-0.7485;4.7376;0.0000;-0.0127;-0.0094
219;-0.4366;4.7377;0.0000;-0.0203;-0.0146
220;-0.1247;4.7376;0.0000;-0.0341;-0.0045
221;0.1871;4.7376;0.0000;-0.0374;0.0064
222;0.4989;4.7377;0.0000;-0.0216;0.0038
223;0.8108;4.7377;0.0000;-0.0206;-0.0062
224;1.1227;4.7377;0.0000;-0.0344;-0.0051
225;1.4345;4.7377;0.0000;-0.0341;-0.0039
226;1.7463;4.7378;0.0000;-0.0376;-0.0049
227;2.0580;4.7378;0.0000;-0.0300;-0.0025
228;2.3693;4.7378;0.0000;-0.0257;0.0013
229;2.6784;4.7377;0.0000;-0.0398;0.0050
230;2.9822;4.7378;0.0000;-0.0402;0.0043
231;3.2777;4.7378;0.0000;-0.0250;-0.0002
232;3.5701;4.7264;0.0000;-0.0243;-0.0007
233;-4.3227;4.4779;0.0000;0.0091;0.0214
234;-4.0109;4.4648;0.0000;0.0184;0.0259
235;-3.7040;4.4634;0.0000;0.0198;0.0324
236;-3.3960;4.4637;0.0000;0.0231;0.0272
237;-3.0862;4.4639;0.0000;0.0224;0.0211
238;-2.7752;4.4640;0.0000;0.0132;0.0194
239;-2.4637;4.4641;0.0000;0.0064;0.0153
240;-2.1519;4.4641;0.0000;0.0033;0.0104
241;-1.8400;4.4641;0.0000;0.0011;0.0067
242;-1.5280;4.4641;0.0000;0.0011;0.0068
243;-1.2161;4.4641;0.0000;-0.0005;0.0082
244;-0.9042;4.4641;0.0000;-0.0116;0.0097
245;-0.5923;4.4642;0.0000;-0.0153;0.0116
246;-0.2804;4.4641;0.0000;-0.0227;0.0057
247;0.0315;4.4641;0.0000;-0.0313;0.0003
248;0.3433;4.4641;0.0000;-0.0353;0.0086
249;0.6551;4.4641;0.0000;-0.0311;0.0065
250;0.9670;4.4642;0.0000;-0.0339;-0.0042
251;1.2788;4.4641;0.0000;-0.0332;-0.0074
252;1.5906;4.4642;0.0000;-0.0255;-0.0069
253;1.9025;4.4642;0.0000;-0.0363;-0.0083
254;2.2139;4.4641;0.0000;-0.0314;-0.0054
255;2.5240;4.4640;0.0000;-0.0301;0.0038
256;2.8292;4.4639;0.0000;-0.0424;0.0081
257;3.1226;4.4643;0.0000;-0.0354;0.0096
258;3.3945;4.4645;0.0000;-0.0214;0.0066
259;3.6343;4.4347;0.0000;-0.0194;0.0070
260;-4.4077;4.1953;0.0000;0.0116;0.0250
261;-4.1476;4.1944;0.0000;0.0170;0.0255
262;-3.8536;4.1919;0.0000;0.0196;0.0281
263;-3.5495;4.1916;0.0000;0.0227;0.0308
264;-3.2411;4.1919;0.0000;0.0197;0.0246
265;-2.9307;4.1921;0.0000;0.0131;0.0121
266;-2.6194;4.1922;0.0000;0.0100;0.0042
267;-2.3077;4.1922;0.0000;0.0112;0.0077
268;-1.9958;4.1922;0.0000;0.0076;0.0129
269;-1.6839;4.1922;0.0000;0.0001;0.0110
270;-1.3720;4.1921;0.0000;-0.0027;0.0059
271;-1.0600;4.1921;0.0000;-0.0090;0.0058
272;-0.7482;4.1921;0.0000;-0.0156;0.0148
273;-0.4363;4.1921;0.0000;-0.0180;0.0205
274;-0.1244;4.1921;0.0000;-0.0220;0.0138
275;0.1875;4.1921;0.0000;-0.0332;0.0069
276;0.4993;4.1921;0.0000;-0.0417;0.0075
277;0.8111;4.1922;0.0000;-0.0327;0.0114
278;1.1229;4.1922;0.0000;-0.0335;0.0083
279;1.4348;4.1921;0.0000;-0.0318;0.0013
280;1.7466;4.1922;0.0000;-0.0378;0.0043
281;2.0582;4.1922;0.0000;-0.0371;0.0080
282;2.3692;4.1920;0.0000;-0.0251;0.0078
283;2.6773;4.1915;0.0000;-0.0311;0.0107
284;2.9778;4.1908;0.0000;-0.0445;0.0093
285;3.2645;4.1911;0.0000;-0.0312;0.0062
286;3.5392;4.1930;0.0000;-0.0233;0.0090
287;-4.3251;3.9171;0.0000;0.0226;0.0441
288;-4.0123;3.9219;0.0000;0.0139;0.0378
289;-3.7046;3.9210;0.0000;0.0104;0.0307
290;-3.3962;3.9209;0.0000;0.0175;0.0311
291;-3.0861;3.9210;0.0000;0.0181;0.0292
292;-2.7751;3.9210;0.0000;0.0126;0.0226
293;-2.4635;3.9211;0.0000;0.0164;0.0191
294;-2.1517;3.9211;0.0000;0.0124;0.0179
295;-1.8398;3.9211;0.0000;-0.0059;0.0191
296;-1.5279;3.9211;0.0000;-0.0084;0.0177
297;-1.2160;3.9211;0.0000;-0.0057;0.0075
298;-0.9041;3.9210;0.0000;-0.0155;0.0032
299;-0.5922;3.9210;0.0000;-0.0157;0.0125
300;-0.2803;3.9210;0.0000;-0.0162;0.0197
301;0.0316;3.9210;0.0000;-0.0275;0.0183
302;0.3434;3.9210;0.0000;-0.0402;0.0147
303;0.6552;3.9210;0.0000;-0.0351;0.0180
304;0.9671;3.9210;0.0000;-0.0277;0.0209
305;1.2789;3.9210;0.0000;-0.0376;0.0137
306;1.5907;3.9211;0.0000;-0.0456;0.0123
307;1.9024;3.9210;0.0000;-0.0380;0.0177
308;2.2138;3.9209;0.0000;-0.0224;0.0165
309;2.5237;3.9204;0.0000;-0.0279;0.0092
310;2.8286;3.9193;0.0000;-0.0471;0.0037
311;3.1212;3.9179;0.0000;-0.0378;0.0063
312;3.3922;3.9206;0.0000;-0.0217;0.0125
313;3.6328;3.9550;0.0000;-0.0233;0.0145
314;-4.3995;3.6334;0.0000;0.0216;0.0392
315;-4.1398;3.6501;0.0000;0.0087;0.0396
316;-3.8503;3.6508;0.0000;0.0011;0.0348
317;-3.5483;3.6504;0.0000;0.0067;0.0236
318;-3.2406;3.6503;0.0000;0.0221;0.0163
319;-2.9305;3.6504;0.0000;0.0129;0.0180
320;-2.6193;3.6505;0.0000;0.0158;0.0236
321;-2.3076;3.6505;0.0000;0.0235;0.0250
322;-1.9957;3.6505;0.0000;0.0020;0.0214
323;-1.6838;3.6504;0.0000;-0.0159;0.0190
324;-1.3719;3.6504;0.0000;-0.0099;0.0197
325;-1.0600;3.6504;0.0000;-0.0192;0.0149
326;-0.7482;3.6504;0.0000;-0.0223;0.0101
327;-0.4363;3.6504;0.0000;-0.0057;0.0156
328;-0.1244;3.6504;0.0000;-0.0176;0.0231
329;0.1875;3.6504;0.0000;-0.0377;0.0216
330;0.4993;3.6504;0.0000;-0.0397;0.0168
331;0.8111;3.6504;0.0000;-0.0283;0.0209
332;1.1230;3.6504;0.0000;-0.0285;0.0262
333;1.4348;3.6504;0.0000;-0.0476;0.0247
334;1.7465;3.6504;0.0000;-0.0442;0.0219
335;2.0582;3.6503;0.0000;-0.0192;0.0206
336;2.3693;3.6501;0.0000;-0.0227;0.0105
337;2.6781;3.6492;0.0000;-0.0499;0.0059
338;2.9812;3.6476;0.0000;-0.0494;0.0153
339;3.2760;3.6481;0.0000;-0.0206;0.0295
340;3.5673;3.6664;0.0000;-0.0236;0.0389
341;-4.3044;3.3747;0.0000;0.0093;0.0183
342;-4.0034;3.3791;0.0000;-0.0011;0.0205
343;-3.7013;3.3796;0.0000;-0.0043;0.0229
344;-3.3950;3.3798;0.0000;0.0143;0.0215
345;-3.0857;3.3800;0.0000;0.0228;0.0192
346;-2.7749;3.3800;0.0000;0.0163;0.0258
347;-2.4634;3.3801;0.0000;0.0163;0.0352
348;-2.1516;3.3801;0.0000;0.0078;0.0352
349;-1.8397;3.3800;0.0000;-0.0117;0.0301
350;-1.5279;3.3800;0.0000;-0.0111;0.0200
351;-1.2160;3.3800;0.0000;-0.0163;0.0149
352;-0.9041;3.3801;0.0000;-0.0281;0.0144
353;-0.5923;3.3800;0.0000;-0.0085;0.0120
354;-0.2803;3.3800;0.0000;-0.0055;0.0124
355;0.0316;3.3800;0.0000;-0.0274;0.0151
356;0.3434;3.3800;0.0000;-0.0416;0.0208
357;0.6552;3.3800;0.0000;-0.0370;0.0220
358;0.9670;3.3799;0.0000;-0.0276;0.0214
359;1.2789;3.3799;0.0000;-0.0339;0.0242
360;1.5907;3.3800;0.0000;-0.0483;0.0229
361;1.9024;3.3800;0.0000;-0.0304;0.0264
362;2.2140;3.3798;0.0000;-0.0187;0.0311
363;2.5242;3.3794;0.0000;-0.0372;0.0306
364;2.8305;3.3783;0.0000;-0.0485;0.0311
365;3.1275;3.3775;0.0000;-0.0332;0.0371
366;3.4059;3.3821;0.0000;-0.0258;0.0493
367;3.6448;3.3870;0.0000;-0.0239;0.0546
368;-4.4256;3.1141;0.0000;0.0137;0.0096
369;-4.1441;3.1100;0.0000;0.0114;0.0109
370;-3.8503;3.1091;0.0000;-0.0004;0.0089
371;-3.5478;3.1093;0.0000;-0.0033;0.0177
372;-3.2404;3.1095;0.0000;0.0167;0.0282
373;-2.9304;3.1097;0.0000;0.0208;0.0330
374;-2.6192;3.1097;0.0000;0.0080;0.0397
375;-2.3076;3.1097;0.0000;0.0034;0.0385
376;-1.9957;3.1097;0.0000;0.0009;0.0292
377;-1.6838;3.1097;0.0000;-0.0056;0.0177
378;-1.3719;3.1098;0.0000;-0.0114;0.0091
379;-1.0600;3.1098;0.0000;-0.0221;0.0122
380;-0.7482;3.1098;0.0000;-0.0149;0.0130
381;-0.4363;3.1098;0.0000;-0.0082;0.0024
382;-0.1244;3.1097;0.0000;-0.0218;0.0003
383;0.1875;3.1097;0.0000;-0.0302;0.0138
384;0.4993;3.1097;0.0000;-0.0355;0.0226
385;0.8112;3.1097;0.0000;-0.0299;0.0150
386;1.1230;3.1097;0.0000;-0.0320;0.0091
387;1.4348;3.1097;0.0000;-0.0445;0.0207
388;1.7466;3.1097;0.0000;-0.0391;0.0344
389;2.0583;3.1096;0.0000;-0.0217;0.0381
390;2.3695;3.1094;0.0000;-0.0285;0.0424
391;2.6787;3.1088;0.0000;-0.0407;0.0391
392;2.9834;3.1082;0.0000;-0.0317;0.0395
393;3.2810;3.1083;0.0000;-0.0296;0.0475
394;3.5725;3.1100;0.0000;-0.0323;0.0469
395;-4.3037;2.8487;0.0000;0.0124;0.0063
396;-4.0028;2.8398;0.0000;0.0080;0.0085
397;-3.7008;2.8388;0.0000;0.0003;0.0096
398;-3.3947;2.8391;0.0000;0.0081;0.0182
399;-3.0856;2.8393;0.0000;0.0145;0.0227
400;-2.7748;2.8394;0.0000;0.0032;0.0227
401;-2.4634;2.8394;0.0000;-0.0025;0.0269
402;-2.1517;2.8395;0.0000;0.0037;0.0217
403;-1.8398;2.8395;0.0000;0.0001;0.0083
404;-1.5279;2.8396;0.0000;-0.0107;0.0070
405;-1.2160;2.8396;0.0000;-0.0122;0.0094
406;-0.9041;2.8396;0.0000;-0.0108;0.0106
407;-0.5922;2.8396;0.0000;-0.0089;0.0097
408;-0.2803;2.8396;0.0000;-0.0243;0.0081
409;0.0315;2.8395;0.0000;-0.0248;0.0135
410;0.3434;2.8394;0.0000;-0.0261;0.0186
411;0.6553;2.8395;0.0000;-0.0261;0.0201
412;0.9671;2.8395;0.0000;-0.0297;0.0179
413;1.2789;2.8394;0.0000;-0.0443;0.0254
414;1.5907;2.8394;0.0000;-0.0407;0.0356
415;1.9025;2.8393;0.0000;-0.0285;0.0345
416;2.2140;2.8392;0.0000;-0.0254;0.0364
417;2.5243;2.8390;0.0000;-0.0354;0.0427
418;2.8305;2.8387;0.0000;-0.0334;0.0478
419;3.1268;2.8386;0.0000;-0.0259;0.0488
420;3.4038;2.8352;0.0000;-0.0305;0.0460
421;3.6404;2.8304;0.0000;-0.0375;0.0469
422;-4.3979;2.5934;0.0000;0.0072;0.0029
423;-4.1385;2.5710;0.0000;0.0058;0.0032
424;-3.8492;2.5680;0.0000;0.0004;0.0036
425;-3.5476;2.5684;0.0000;0.0056;0.0057
426;-3.2403;2.5689;0.0000;0.0081;0.0094
427;-2.9303;2.5692;0.0000;-0.0021;0.0041
428;-2.6192;2.5692;0.0000;0.0032;-0.0041
429;-2.3076;2.5692;0.0000;0.0057;-0.0023
430;-1.9957;2.5693;0.0000;0.0057;0.0032
431;-1.6838;2.5694;0.0000;-0.0022;0.0101
432;-1.3719;2.5694;0.0000;-0.0070;0.0161
433;-1.0600;2.5694;0.0000;-0.0105;0.0146
434;-0.7481;2.5694;0.0000;-0.0151;0.0110
435;-0.4362;2.5694;0.0000;-0.0183;0.0140
436;-0.1244;2.5693;0.0000;-0.0247;0.0136
437;0.1875;2.5693;0.0000;-0.0239;0.0096
438;0.4993;2.5692;0.0000;-0.0290;0.0162
439;0.8112;2.5692;0.0000;-0.0255;0.0211
440;1.1231;2.5692;0.0000;-0.0342;0.0234
441;1.4349;2.5692;0.0000;-0.0372;0.0329
442;1.7467;2.5692;0.0000;-0.0294;0.0349
443;2.0584;2.5691;0.0000;-0.0350;0.0317
444;2.3694;2.5689;0.0000;-0.0409;0.0353
445;2.6781;2.5686;0.0000;-0.0350;0.0465
446;2.9808;2.5685;0.0000;-0.0268;0.0519
447;3.2743;2.5679;0.0000;-0.0182;0.0443
448;3.5643;2.5517;0.0000;-0.0312;0.0412
449;-4.3224;2.3085;0.0000;0.0005;0.0018
450;-4.0106;2.2985;0.0000;-0.0054;-0.0009
451;-3.7036;2.2981;0.0000;0.0048;-0.0010
452;-3.3956;2.2986;0.0000;0.0148;-0.0065
453;-3.0858;2.2989;0.0000;-0.0011;-0.0125
454;-2.7750;2.2991;0.0000;-0.0007;-0.0138
455;-2.4634;2.2991;0.0000;0.0087;-0.0149
456;-2.1517;2.2992;0.0000;-0.0022;-0.0103
457;-1.8398;2.2992;0.0000;-0.0033;0.0008
458;-1.5279;2.2992;0.0000;-0.0003;0.0110
459;-1.2160;2.2992;0.0000;0.0013;0.0147
460;-0.9040;2.2992;0.0000;-0.0119;0.0122
461;-0.5921;2.2992;0.0000;-0.0228;0.0148
462;-0.2803;2.2992;0.0000;-0.0224;0.0166
463;0.0316;2.2991;0.0000;-0.0197;0.0127
464;0.3435;2.2991;0.0000;-0.0261;0.0107
465;0.6553;2.2990;0.0000;-0.0329;0.0095
466;0.9671;2.2991;0.0000;-0.0298;0.0109
467;1.2790;2.2990;0.0000;-0.0296;0.0181
468;1.5908;2.2989;0.0000;-0.0345;0.0344
469;1.9026;2.2989;0.0000;-0.0421;0.0435
470;2.2139;2.2988;0.0000;-0.0398;0.0396
471;2.5238;2.2985;0.0000;-0.0342;0.0393
472;2.8285;2.2980;0.0000;-0.0263;0.0446
473;3.1207;2.2979;0.0000;-0.0235;0.0470
474;3.3906;2.2976;0.0000;-0.0210;0.0414
475;3.6301;2.2618;0.0000;-0.0267;0.0346
476;-4.4069;2.0332;0.0000;-0.0014;-0.0020
477;-4.1465;2.0288;0.0000;-0.0117;-0.0040
478;-3.8527;2.0284;0.0000;-0.0042;0.0020
479;-3.5489;2.0285;0.0000;0.0137;0.0026
480;-3.2407;2.0288;0.0000;0.0114;-0.0113
481;-2.9304;2.0290;0.0000;-0.0087;-0.0098
482;-2.6192;2.0290;0.0000;-0.0008;0.0021
483;-2.3076;2.0290;0.0000;0.0044;0.0028
484;-1.9957;2.0290;0.0000;-0.0056;-0.0034
485;-1.6839;2.0290;0.0000;-0.0063;-0.0034
486;-1.3719;2.0290;0.0000;0.0017;0.0026
487;-1.0600;2.0290;0.0000;0.0000;0.0083
488;-0.7481;2.0290;0.0000;-0.0116;0.0149
489;-0.4362;2.0290;0.0000;-0.0200;0.0205
490;-0.1243;2.0290;0.0000;-0.0218;0.0241
491;0.1876;2.0289;0.0000;-0.0252;0.0231
492;0.4994;2.0289;0.0000;-0.0305;0.0196
493;0.8112;2.0289;0.0000;-0.0319;0.0216
494;1.1231;2.0289;0.0000;-0.0257;0.0236
495;1.4350;2.0287;0.0000;-0.0272;0.0238
496;1.7468;2.0286;0.0000;-0.0445;0.0317
497;2.0584;2.0285;0.0000;-0.0405;0.0383
498;2.3693;2.0283;0.0000;-0.0317;0.0390
499;2.6772;2.0277;0.0000;-0.0317;0.0432
500;2.9774;2.0265;0.0000;-0.0294;0.0457
501;3.2632;2.0260;0.0000;-0.0209;0.0411
502;3.5342;2.0301;0.0000;-0.0246;0.0330
503;-4.3224;1.7501;0.0000;-0.0073;-0.0153
504;-4.0105;1.7584;0.0000;-0.0059;-0.0086
505;-3.7035;1.7587;0.0000;0.0029;-0.0025
506;-3.3955;1.7587;0.0000;0.0094;-0.0014
507;-3.0858;1.7588;0.0000;-0.0009;0.0041
508;-2.7749;1.7588;0.0000;-0.0125;0.0019
509;-2.4634;1.7588;0.0000;0.0010;-0.0008
510;-2.1516;1.7589;0.0000;0.0035;0.0044
511;-1.8398;1.7589;0.0000;-0.0056;0.0009
512;-1.5279;1.7589;0.0000;-0.0034;-0.0056
513;-1.2159;1.7588;0.0000;-0.0042;-0.0004
514;-0.9040;1.7588;0.0000;-0.0020;0.0068
515;-0.5921;1.7588;0.0000;-0.0103;0.0066
516;-0.2802;1.7588;0.0000;-0.0204;0.0112
517;0.0317;1.7587;0.0000;-0.0222;0.0167
518;0.3435;1.7587;0.0000;-0.0271;0.0169
519;0.6554;1.7586;0.0000;-0.0271;0.0224
520;0.9672;1.7586;0.0000;-0.0297;0.0278
521;1.2791;1.7586;0.0000;-0.0269;0.0271
522;1.5909;1.7585;0.0000;-0.0346;0.0185
523;1.9027;1.7584;0.0000;-0.0456;0.0169
524;2.2140;1.7582;0.0000;-0.0326;0.0291
525;2.5239;1.7576;0.0000;-0.0278;0.0368
526;2.8288;1.7562;0.0000;-0.0324;0.0326
527;3.1220;1.7545;0.0000;-0.0284;0.0295
528;3.3951;1.7567;0.0000;-0.0262;0.0345
529;3.6371;1.8054;0.0000;-0.0277;0.0376
530;-4.3961;1.4620;0.0000;-0.0092;-0.0261
531;-4.1379;1.4856;0.0000;-0.0086;-0.0253
532;-3.8490;1.4885;0.0000;0.0034;-0.0248
533;-3.5474;1.4886;0.0000;0.0095;-0.0212
534;-3.2401;1.4886;0.0000;0.0041;-0.0111
535;-2.9302;1.4887;0.0000;-0.0132;-0.0109
536;-2.6192;1.4887;0.0000;-0.0138;-0.0164
537;-2.3075;1.4887;0.0000;0.0047;-0.0105
538;-1.9957;1.4887;0.0000;0.0048;0.0008
539;-1.6838;1.4887;0.0000;-0.0012;0.0006
540;-1.3719;1.4887;0.0000;-0.0096;-0.0033
541;-1.0600;1.4887;0.0000;-0.0078;0.0018
542;-0.7481;1.4887;0.0000;-0.0006;0.0075
543;-0.4361;1.4887;0.0000;-0.0088;0.0057
544;-0.1242;1.4886;0.0000;-0.0105;-0.0003
545;0.1877;1.4885;0.0000;-0.0173;-0.0051
546;0.4996;1.4885;0.0000;-0.0284;-0.0016
547;0.8114;1.4885;0.0000;-0.0339;0.0077
548;1.1232;1.4884;0.0000;-0.0353;0.0172
549;1.4350;1.4883;0.0000;-0.0312;0.0208
550;1.7468;1.4882;0.0000;-0.0382;0.0139
551;2.0585;1.4881;0.0000;-0.0389;0.0119
552;2.3695;1.4877;0.0000;-0.0288;0.0185
553;2.6784;1.4866;0.0000;-0.0303;0.0201
554;2.9818;1.4847;0.0000;-0.0347;0.0188
555;3.2767;1.4855;0.0000;-0.0300;0.0275
556;3.5686;1.5038;0.0000;-0.0297;0.0372
557;-4.3024;1.2063;0.0000;-0.0086;-0.0184
558;-4.0021;1.2163;0.0000;-0.0036;-0.0277
559;-3.7004;1.2179;0.0000;0.0078;-0.0334
560;-3.3944;1.2183;0.0000;0.0080;-0.0379
561;-3.0853;1.2185;0.0000;-0.0050;-0.0349
562;-2.7747;1.2186;0.0000;-0.0190;-0.0250
563;-2.4634;1.2186;0.0000;-0.0128;-0.0175
564;-2.1516;1.2186;0.0000;0.0099;-0.0135
565;-1.8397;1.2186;0.0000;0.0086;-0.0121
566;-1.5278;1.2186;0.0000;-0.0071;-0.0136
567;-1.2159;1.2186;0.0000;-0.0089;-0.0135
568;-0.9040;1.2185;0.0000;0.0010;-0.0037
569;-0.5920;1.2185;0.0000;-0.0027;0.0056
570;-0.2801;1.2185;0.0000;-0.0080;0.0014
571;0.0318;1.2184;0.0000;-0.0111;-0.0053
572;0.3437;1.2184;0.0000;-0.0167;-0.0096
573;0.6556;1.2183;0.0000;-0.0311;-0.0040
574;0.9674;1.2183;0.0000;-0.0446;0.0101
575;1.2792;1.2181;0.0000;-0.0359;0.0174
576;1.5910;1.2181;0.0000;-0.0250;0.0179
577;1.9028;1.2180;0.0000;-0.0342;0.0137
578;2.2143;1.2178;0.0000;-0.0417;0.0093
579;2.5246;1.2170;0.0000;-0.0348;0.0097
580;2.8313;1.2151;0.0000;-0.0361;0.0130
581;3.1282;1.2128;0.0000;-0.0349;0.0174
582;3.4043;1.2187;0.0000;-0.0305;0.0214
583;3.6426;1.2305;0.0000;-0.0294;0.0251
584;-4.4240;0.9391;0.0000;-0.0070;-0.0290
585;-4.1428;0.9456;0.0000;-0.0091;-0.0181
586;-3.8495;0.9472;0.0000;-0.0044;-0.0226
587;-3.5473;0.9480;0.0000;0.0004;-0.0336
588;-3.2400;0.9484;0.0000;-0.0060;-0.0383
589;-2.9301;0.9485;0.0000;-0.0065;-0.0302
590;-2.6191;0.9485;0.0000;-0.0158;-0.0213
591;-2.3075;0.9485;0.0000;-0.0067;-0.0225
592;-1.9957;0.9485;0.0000;0.0107;-0.0281
593;-1.6838;0.9485;0.0000;0.0003;-0.0239
594;-1.3719;0.9485;0.0000;-0.0055;-0.0192
595;-1.0599;0.9485;0.0000;0.0029;-0.0220
596;-0.7479;0.9484;0.0000;0.0007;-0.0158
597;-0.4360;0.9483;0.0000;-0.0065;-0.0025
598;-0.1241;0.9483;0.0000;-0.0136;0.0050
599;0.1878;0.9483;0.0000;-0.0079;0.0030
600;0.4997;0.9482;0.0000;-0.0050;-0.0025
601;0.8116;0.9481;0.0000;-0.0391;0.0015
602;1.1234;0.9480;0.0000;-0.0512;0.0077
603;1.4351;0.9479;0.0000;-0.0336;0.0102
604;1.7470;0.9479;0.0000;-0.0207;0.0134
605;2.0588;0.9477;0.0000;-0.0356;0.0132
606;2.3701;0.9472;0.0000;-0.0419;0.0139
607;2.6804;0.9457;0.0000;-0.0317;0.0145
608;2.9878;0.9421;0.0000;-0.0376;0.0136
609;3.2886;0.9394;0.0000;-0.0380;0.0102
610;3.5777;0.9483;0.0000;-0.0386;0.0136
611;-4.3027;0.6807;0.0000;-0.0070;-0.0305
612;-4.0021;0.6770;0.0000;-0.0190;-0.0212
613;-3.7004;0.6774;0.0000;-0.0144;-0.0265
614;-3.3944;0.6780;0.0000;-0.0083;-0.0339
615;-3.0854;0.6784;0.0000;-0.0040;-0.0311
616;-2.7747;0.6784;0.0000;-0.0035;-0.0238
617;-2.4633;0.6784;0.0000;-0.0116;-0.0212
618;-2.1516;0.6784;0.0000;-0.0018;-0.0224
619;-1.8397;0.6784;0.0000;0.0017;-0.0174
620;-1.5278;0.6784;0.0000;-0.0076;-0.0110
621;-1.2159;0.6784;0.0000;-0.0036;-0.0126
622;-0.9040;0.6783;0.0000;0.0052;-0.0200
623;-0.5920;0.6782;0.0000;0.0027;-0.0154
624;-0.2801;0.6781;0.0000;-0.0073;-0.0024
625;0.0318;0.6781;0.0000;-0.0122;0.0014
626;0.3437;0.6781;0.0000;0.0021;0.0012
627;0.6557;0.6781;0.0000;-0.0150;-0.0031
628;0.9675;0.6779;0.0000;-0.0420;-0.0053
629;1.2793;0.6778;0.0000;-0.0462;-0.0071
630;1.5911;0.6777;0.0000;-0.0340;-0.0024
631;1.9030;0.6776;0.0000;-0.0273;0.0105
632;2.2148;0.6774;0.0000;-0.0377;0.0088
633;2.5268;0.6767;0.0000;-0.0283;0.0044
634;2.8396;0.6746;0.0000;-0.0287;0.0080
635;3.1557;0.6719;0.0000;-0.0427;0.0096
636;3.4816;0.6800;0.0000;-0.0450;0.0110
637;-4.3982;0.4218;0.0000;-0.0062;-0.0388
638;-4.1385;0.4065;0.0000;-0.0172;-0.0463
639;-3.8490;0.4063;0.0000;-0.0213;-0.0425
640;-3.5473;0.4075;0.0000;-0.0091;-0.0295
641;-3.2400;0.4081;0.0000;-0.0063;-0.0214
642;-2.9301;0.4083;0.0000;-0.0058;-0.0251
643;-2.6190;0.4083;0.0000;-0.0084;-0.0258
644;-2.3074;0.4083;0.0000;-0.0034;-0.0215
645;-1.9956;0.4083;0.0000;0.0025;-0.0160
646;-1.6837;0.4083;0.0000;-0.0123;-0.0100
647;-1.3718;0.4083;0.0000;-0.0103;-0.0106
648;-1.0599;0.4082;0.0000;0.0052;-0.0125
649;-0.7479;0.4082;0.0000;0.0032;-0.0129
650;-0.4360;0.4081;0.0000;-0.0049;-0.0128
651;-0.1241;0.4080;0.0000;-0.0064;-0.0113
652;0.1879;0.4080;0.0000;-0.0015;-0.0044
653;0.4998;0.4079;0.0000;-0.0061;0.0018
654;0.8117;0.4079;0.0000;-0.0242;-0.0021
655;1.1236;0.4078;0.0000;-0.0385;-0.0125
656;1.4353;0.4077;0.0000;-0.0511;-0.0199
657;1.7471;0.4075;0.0000;-0.0333;-0.0153
658;2.0590;0.4074;0.0000;-0.0319;-0.0091
659;2.3710;0.4072;0.0000;-0.0314;-0.0114
660;2.6836;0.4064;0.0000;-0.0280;-0.0126
661;2.9978;0.4050;0.0000;-0.0392;-0.0028
662;3.3130;0.4055;0.0000;-0.0451;0.0144
663;3.6149;0.4254;0.0000;-0.0414;0.0201
664;-4.3232;0.1406;0.0000;-0.0083;-0.0556
665;-4.0105;0.1365;0.0000;-0.0223;-0.0569
666;-3.7033;0.1372;0.0000;-0.0155;-0.0430
667;-3.3953;0.1378;0.0000;-0.0059;-0.0201
668;-3.0855;0.1382;0.0000;-0.0021;-0.0174
669;-2.7746;0.1383;0.0000;-0.0131;-0.0283
670;-2.4632;0.1383;0.0000;-0.0154;-0.0319
671;-2.1515;0.1382;0.0000;0.0069;-0.0286
672;-1.8395;0.1382;0.0000;0.0031;-0.0276
673;-1.5277;0.1382;0.0000;-0.0164;-0.0207
674;-1.2158;0.1382;0.0000;0.0012;-0.0052
675;-0.9038;0.1381;0.0000;0.0053;0.0011
676;-0.5919;0.1380;0.0000;-0.0118;-0.0048
677;-0.2800;0.1379;0.0000;-0.0081;-0.0116
678;0.0319;0.1379;0.0000;0.0011;-0.0121
679;0.3439;0.1378;0.0000;-0.0033;-0.0074
680;0.6558;0.1378;0.0000;-0.0214;-0.0031
681;0.9676;0.1377;0.0000;-0.0248;-0.0062
682;1.2795;0.1376;0.0000;-0.0414;-0.0111
683;1.5913;0.1375;0.0000;-0.0399;-0.0171
684;1.9032;0.1374;0.0000;-0.0341;-0.0232
685;2.2151;0.1373;0.0000;-0.0367;-0.0201
686;2.5278;0.1371;0.0000;-0.0319;-0.0164
687;2.8426;0.1368;0.0000;-0.0359;-0.0145
688;3.1624;0.1367;0.0000;-0.0377;-0.0059
689;3.4927;0.1354;0.0000;-0.0426;0.0041
690;-4.4023;-0.1368;0.0000;-0.0006;-0.0467
691;-4.1443;-0.1344;0.0000;-0.0150;-0.0448
692;-3.8514;-0.1322;0.0000;-0.0176;-0.0488
693;-3.5481;-0.1320;0.0000;-0.0157;-0.0456
694;-3.2402;-0.1319;0.0000;-0.0073;-0.0312
695;-2.9301;-0.1318;0.0000;-0.0019;-0.0234
696;-2.6189;-0.1318;0.0000;-0.0178;-0.0294
697;-2.3073;-0.1318;0.0000;-0.0128;-0.0318
698;-1.9955;-0.1318;0.0000;0.0122;-0.0270
699;-1.6835;-0.1318;0.0000;-0.0060;-0.0234
700;-1.3717;-0.1320;0.0000;-0.0102;-0.0140
701;-1.0597;-0.1321;0.0000;0.0085;-0.0049
702;-0.7478;-0.1321;0.0000;-0.0049;-0.0078
703;-0.4359;-0.1322;0.0000;-0.0096;-0.0122
704;-0.1240;-0.1322;0.0000;-0.0067;-0.0100
705;0.1880;-0.1323;0.0000;-0.0063;-0.0060
706;0.4999;-0.1323;0.0000;-0.0122;-0.0040
707;0.8117;-0.1324;0.0000;-0.0232;-0.0061
708;1.1236;-0.1325;0.0000;-0.0247;-0.0081
709;1.4355;-0.1325;0.0000;-0.0334;-0.0117
710;1.7473;-0.1326;0.0000;-0.0302;-0.0171
711;2.0592;-0.1327;0.0000;-0.0359;-0.0146
712;2.3714;-0.1328;0.0000;-0.0396;-0.0043
713;2.6844;-0.1327;0.0000;-0.0434;-0.0005
714;2.9986;-0.1325;0.0000;-0.0348;-0.0070
715;3.3124;-0.1329;0.0000;-0.0335;-0.0138
716;3.6141;-0.1566;0.0000;-0.0409;-0.0242
717;-4.3188;-0.4166;0.0000;-0.0202;-0.0314
718;-4.0077;-0.4019;0.0000;-0.0139;-0.0383
719;-3.7020;-0.4015;0.0000;-0.0113;-0.0418
720;-3.3947;-0.4017;0.0000;-0.0106;-0.0432
721;-3.0853;-0.4018;0.0000;-0.0027;-0.0382
722;-2.7745;-0.4018;0.0000;-0.0082;-0.0291
723;-2.4631;-0.4018;0.0000;-0.0226;-0.0273
724;-2.1514;-0.4019;0.0000;-0.0064;-0.0198
725;-1.8395;-0.4019;0.0000;0.0060;-0.0073
726;-1.5276;-0.4020;0.0000;-0.0092;-0.0066
727;-1.2157;-0.4021;0.0000;0.0026;-0.0147
728;-0.9037;-0.4022;0.0000;0.0011;-0.0167
729;-0.5918;-0.4022;0.0000;-0.0099;-0.0152
730;-0.2799;-0.4023;0.0000;-0.0023;-0.0184
731;0.0321;-0.4024;0.0000;-0.0054;-0.0188
732;0.3440;-0.4025;0.0000;-0.0040;-0.0172
733;0.6559;-0.4025;0.0000;-0.0160;-0.0175
734;0.9677;-0.4026;0.0000;-0.0275;-0.0160
735;1.2796;-0.4026;0.0000;-0.0257;-0.0171
736;1.5915;-0.4027;0.0000;-0.0275;-0.0169
737;1.9034;-0.4028;0.0000;-0.0321;-0.0102
738;2.2154;-0.4028;0.0000;-0.0382;-0.0104
739;2.5280;-0.4028;0.0000;-0.0429;-0.0194
740;2.8419;-0.4026;0.0000;-0.0402;-0.0206
741;3.1583;-0.4033;0.0000;-0.0313;-0.0193
742;3.4799;-0.4070;0.0000;-0.0330;-0.0246
743;-4.3926;-0.7062;0.0000;-0.0290;-0.0290
744;-4.1324;-0.6722;0.0000;-0.0246;-0.0285
745;-3.8457;-0.6711;0.0000;-0.0102;-0.0225
746;-3.5458;-0.6717;0.0000;-0.0039;-0.0218
747;-3.2392;-0.6718;0.0000;-0.0036;-0.0330
748;-2.9296;-0.6719;0.0000;-0.0087;-0.0356
749;-2.6187;-0.6719;0.0000;-0.0222;-0.0321
750;-2.3072;-0.6720;0.0000;-0.0245;-0.0304
751;-1.9954;-0.6721;0.0000;0.0003;-0.0188
752;-1.6835;-0.6721;0.0000;0.0015;-0.0088
753;-1.3716;-0.6722;0.0000;-0.0017;-0.0130
754;-1.0596;-0.6723;0.0000;0.0046;-0.0187
755;-0.7477;-0.6723;0.0000;-0.0097;-0.0196
756;-0.4358;-0.6724;0.0000;-0.0052;-0.0228
757;-0.1239;-0.6724;0.0000;-0.0006;-0.0253
758;0.1881;-0.6725;0.0000;-0.0073;-0.0241
759;0.5000;-0.6725;0.0000;-0.0018;-0.0232
760;0.8119;-0.6726;0.0000;-0.0184;-0.0232
761;1.1238;-0.6727;0.0000;-0.0266;-0.0236
762;1.4356;-0.6727;0.0000;-0.0299;-0.0204
763;1.7475;-0.6728;0.0000;-0.0388;-0.0137
764;2.0594;-0.6729;0.0000;-0.0378;-0.0132
765;2.3715;-0.6729;0.0000;-0.0307;-0.0301
766;2.6839;-0.6729;0.0000;-0.0291;-0.0408
767;2.9963;-0.6736;0.0000;-0.0364;-0.0350
768;3.3047;-0.6781;0.0000;-0.0353;-0.0296
769;3.5916;-0.6616;0.0000;-0.0365;-0.0225
770;-4.2877;-0.9419;0.0000;-0.0334;-0.0230
771;-3.9947;-0.9425;0.0000;-0.0313;-0.0154
772;-3.6971;-0.9424;0.0000;-0.0071;-0.0155
773;-3.3929;-0.9422;0.0000;0.0040;-0.0230
774;-3.0845;-0.9420;0.0000;-0.0011;-0.0345
775;-2.7741;-0.9420;0.0000;-0.0123;-0.0386
776;-2.4629;-0.9420;0.0000;-0.0266;-0.0336
777;-2.1512;-0.9420;0.0000;-0.0120;-0.0341
778;-1.8394;-0.9422;0.0000;0.0081;-0.0302
779;-1.5274;-0.9423;0.0000;-0.0027;-0.0255
780;-1.2155;-0.9423;0.0000;-0.0002;-0.0275
781;-0.9036;-0.9424;0.0000;-0.0025;-0.0303
782;-0.5917;-0.9424;0.0000;-0.0057;-0.0299
783;-0.2797;-0.9425;0.0000;-0.0012;-0.0213
784;0.0322;-0.9425;0.0000;-0.0064;-0.0150
785;0.3441;-0.9426;0.0000;-0.0058;-0.0140
786;0.6561;-0.9427;0.0000;-0.0081;-0.0140
787;0.9679;-0.9427;0.0000;-0.0216;-0.0196
788;1.2798;-0.9428;0.0000;-0.0282;-0.0193
789;1.5916;-0.9429;0.0000;-0.0448;-0.0143
790;1.9035;-0.9430;0.0000;-0.0466;-0.0221
791;2.2155;-0.9430;0.0000;-0.0270;-0.0282
792;2.5283;-0.9429;0.0000;-0.0199;-0.0233
793;2.8431;-0.9429;0.0000;-0.0300;-0.0220
794;3.1638;-0.9440;0.0000;-0.0354;-0.0290
795;3.5026;-0.9480;0.0000;-0.0335;-0.0319
796;-4.3914;-1.1759;0.0000;-0.0145;-0.0052
797;-4.1311;-1.2123;0.0000;-0.0327;-0.0064
798;-3.8448;-1.2140;0.0000;-0.0158;-0.0112
799;-3.5452;-1.2131;0.0000;0.0017;-0.0210
800;-3.2389;-1.2124;0.0000;0.0045;-0.0303
801;-2.9294;-1.2121;0.0000;0.0033;-0.0301
802;-2.6184;-1.2120;0.0000;-0.0122;-0.0190
803;-2.3070;-1.2121;0.0000;-0.0263;-0.0116
804;-1.9952;-1.2122;0.0000;-0.0047;-0.0212
805;-1.6833;-1.2123;0.0000;0.0003;-0.0267
806;-1.3714;-1.2123;0.0000;-0.0087;-0.0175
807;-1.0595;-1.2124;0.0000;0.0005;-0.0144
808;-0.7476;-1.2124;0.0000;-0.0017;-0.0194
809;-0.4356;-1.2125;0.0000;-0.0024;-0.0168
810;-0.1237;-1.2126;0.0000;-0.0011;-0.0136
811;0.1882;-1.2127;0.0000;-0.0072;-0.0177
812;0.5002;-1.2127;0.0000;-0.0126;-0.0229
813;0.8120;-1.2128;0.0000;-0.0193;-0.0254
814;1.1239;-1.2129;0.0000;-0.0185;-0.0231
815;1.4358;-1.2130;0.0000;-0.0322;-0.0191
816;1.7476;-1.2131;0.0000;-0.0499;-0.0211
817;2.0595;-1.2131;0.0000;-0.0318;-0.0301
818;2.3716;-1.2130;0.0000;-0.0157;-0.0294
819;2.6839;-1.2128;0.0000;-0.0339;-0.0236
820;2.9956;-1.2124;0.0000;-0.0392;-0.0272
821;3.3035;-1.2125;0.0000;-0.0283;-0.0352
822;3.5876;-1.2348;0.0000;-0.0326;-0.0389
823;-4.3180;-1.4657;0.0000;-0.0150;0.0101
824;-4.0067;-1.4830;0.0000;-0.0119;-0.0033
825;-3.7011;-1.4838;0.0000;0.0043;-0.0140
826;-3.3940;-1.4828;0.0000;0.0010;-0.0152
827;-3.0848;-1.4823;0.0000;-0.0001;-0.0029
828;-2.7741;-1.4822;0.0000;-0.0011;0.0030
829;-2.4627;-1.4822;0.0000;-0.0159;-0.0041
830;-2.1510;-1.4823;0.0000;-0.0189;-0.0080
831;-1.8392;-1.4823;0.0000;-0.0084;-0.0112
832;-1.5273;-1.4824;0.0000;-0.0090;-0.0129
833;-1.2154;-1.4825;0.0000;0.0002;-0.0076
834;-0.9035;-1.4826;0.0000;0.0001;-0.0016
835;-0.5915;-1.4826;0.0000;-0.0097;-0.0039
836;-0.2796;-1.4827;0.0000;-0.0050;-0.0107
837;0.0323;-1.4828;0.0000;-0.0022;-0.0131
838;0.3442;-1.4828;0.0000;-0.0107;-0.0144
839;0.6561;-1.4828;0.0000;-0.0184;-0.0186
840;0.9680;-1.4829;0.0000;-0.0164;-0.0249
841;1.2799;-1.4830;0.0000;-0.0144;-0.0288
842;1.5918;-1.4831;0.0000;-0.0355;-0.0284
843;1.9036;-1.4831;0.0000;-0.0437;-0.0290
844;2.2156;-1.4831;0.0000;-0.0286;-0.0335
845;2.5280;-1.4830;0.0000;-0.0301;-0.0366
846;2.8410;-1.4829;0.0000;-0.0379;-0.0342
847;3.1558;-1.4829;0.0000;-0.0300;-0.0309
848;3.4771;-1.4885;0.0000;-0.0335;-0.0356
849;-4.4015;-1.7455;0.0000;-0.0090;0.0115
850;-4.1440;-1.7491;0.0000;-0.0001;0.0048
851;-3.8509;-1.7531;0.0000;0.0103;-0.0032
852;-3.5475;-1.7531;0.0000;0.0099;-0.0050
853;-3.2396;-1.7526;0.0000;0.0019;0.0034
854;-2.9295;-1.7524;0.0000;-0.0099;0.0071
855;-2.6184;-1.7523;0.0000;-0.0127;-0.0014
856;-2.3068;-1.7523;0.0000;-0.0078;-0.0087
857;-1.9950;-1.7524;0.0000;-0.0092;-0.0131
858;-1.6831;-1.7525;0.0000;-0.0130;-0.0148
859;-1.3713;-1.7526;0.0000;-0.0084;-0.0148
860;-1.0593;-1.7527;0.0000;0.0046;-0.0142
861;-0.7474;-1.7527;0.0000;-0.0069;-0.0094
862;-0.4355;-1.7528;0.0000;-0.0142;-0.0124
863;-0.1236;-1.7528;0.0000;-0.0065;-0.0219
864;0.1883;-1.7529;0.0000;-0.0044;-0.0187
865;0.5003;-1.7530;0.0000;-0.0117;-0.0143
866;0.8122;-1.7530;0.0000;-0.0168;-0.0186
867;1.1240;-1.7530;0.0000;-0.0170;-0.0226
868;1.4359;-1.7531;0.0000;-0.0247;-0.0265
869;1.7478;-1.7532;0.0000;-0.0340;-0.0338
870;2.0597;-1.7532;0.0000;-0.0416;-0.0381
871;2.3716;-1.7531;0.0000;-0.0404;-0.0364
872;2.6838;-1.7531;0.0000;-0.0395;-0.0329
873;2.9956;-1.7528;0.0000;-0.0259;-0.0297
874;3.3055;-1.7514;0.0000;-0.0213;-0.0311
875;3.6117;-1.7464;0.0000;-0.0323;-0.0404
876;-4.3218;-2.0233;0.0000;0.0011;0.0037
877;-4.0100;-2.0212;0.0000;0.0124;0.0085
878;-3.7028;-2.0226;0.0000;0.0165;0.0071
879;-3.3947;-2.0226;0.0000;0.0124;0.0024
880;-3.0849;-2.0225;0.0000;-0.0072;0.0007
881;-2.7741;-2.0225;0.0000;-0.0215;0.0020
882;-2.4626;-2.0225;0.0000;-0.0065;0.0019
883;-2.1509;-2.0225;0.0000;-0.0014;-0.0022
884;-1.8390;-2.0225;0.0000;-0.0106;-0.0101
885;-1.5271;-2.0227;0.0000;-0.0169;-0.0180
886;-1.2153;-2.0227;0.0000;-0.0049;-0.0196
887;-0.9033;-2.0228;0.0000;0.0057;-0.0191
888;-0.5914;-2.0229;0.0000;-0.0101;-0.0154
889;-0.2795;-2.0229;0.0000;-0.0186;-0.0159
890;0.0324;-2.0229;0.0000;-0.0070;-0.0231
891;0.3443;-2.0230;0.0000;-0.0057;-0.0227
892;0.6562;-2.0231;0.0000;-0.0168;-0.0196
893;0.9681;-2.0231;0.0000;-0.0182;-0.0176
894;1.2800;-2.0231;0.0000;-0.0198;-0.0178
895;1.5919;-2.0232;0.0000;-0.0247;-0.0275
896;1.9038;-2.0232;0.0000;-0.0320;-0.0319
897;2.2157;-2.0232;0.0000;-0.0475;-0.0254
898;2.5279;-2.0232;0.0000;-0.0476;-0.0244
899;2.8407;-2.0232;0.0000;-0.0271;-0.0311
900;3.1549;-2.0217;0.0000;-0.0125;-0.0350
901;3.4754;-2.0101;0.0000;-0.0219;-0.0349
902;-4.3962;-2.3043;0.0000;0.0007;0.0199
903;-4.1374;-2.2913;0.0000;0.0104;0.0222
904;-3.8486;-2.2919;0.0000;0.0149;0.0209
905;-3.5468;-2.2926;0.0000;0.0136;0.0162
906;-3.2394;-2.2926;0.0000;0.0057;0.0120
907;-2.9294;-2.2926;0.0000;-0.0104;0.0093
908;-2.6183;-2.2926;0.0000;-0.0086;0.0061
909;-2.3067;-2.2926;0.0000;0.0006;0.0048
910;-1.9949;-2.2927;0.0000;-0.0104;0.0016
911;-1.6830;-2.2927;0.0000;-0.0183;-0.0072
912;-1.3712;-2.2928;0.0000;-0.0158;-0.0099
913;-1.0593;-2.2929;0.0000;0.0003;-0.0089
914;-0.7473;-2.2929;0.0000;0.0021;-0.0048
915;-0.4354;-2.2930;0.0000;-0.0147;-0.0022
916;-0.1235;-2.2930;0.0000;-0.0178;-0.0033
917;0.1884;-2.2931;0.0000;-0.0052;-0.0104
918;0.5003;-2.2931;0.0000;-0.0112;-0.0190
919;0.8122;-2.2932;0.0000;-0.0232;-0.0152
920;1.1241;-2.2932;0.0000;-0.0199;-0.0113
921;1.4360;-2.2933;0.0000;-0.0227;-0.0161
922;1.7478;-2.2933;0.0000;-0.0269;-0.0180
923;2.0597;-2.2933;0.0000;-0.0335;-0.0163
924;2.3717;-2.2934;0.0000;-0.0416;-0.0212
925;2.6836;-2.2936;0.0000;-0.0388;-0.0300
926;2.9947;-2.2939;0.0000;-0.0191;-0.0370
927;3.3001;-2.2899;0.0000;-0.0134;-0.0353
928;3.5826;-2.2600;0.0000;-0.0269;-0.0315
929;-4.3013;-2.5647;0.0000;0.0038;0.0400
930;-4.0013;-2.5629;0.0000;0.0141;0.0354
931;-3.6997;-2.5630;0.0000;0.0142;0.0352
932;-3.3937;-2.5629;0.0000;0.0084;0.0285
933;-3.0846;-2.5628;0.0000;0.0054;0.0169
934;-2.7739;-2.5628;0.0000;-0.0020;0.0056
935;-2.4625;-2.5628;0.0000;0.0004;0.0039
936;-2.1507;-2.5628;0.0000;-0.0036;0.0039
937;-1.8389;-2.5628;0.0000;-0.0154;-0.0037
938;-1.5270;-2.5629;0.0000;-0.0196;-0.0059
939;-1.2151;-2.5630;0.0000;-0.0144;-0.0013
940;-0.9032;-2.5630;0.0000;-0.0023;0.0021
941;-0.5913;-2.5631;0.0000;0.0012;-0.0042
942;-0.2793;-2.5632;0.0000;-0.0122;-0.0158
943;0.0325;-2.5632;0.0000;-0.0192;-0.0157
944;0.3444;-2.5632;0.0000;-0.0099;-0.0124
945;0.6563;-2.5632;0.0000;-0.0152;-0.0136
946;0.9682;-2.5633;0.0000;-0.0218;-0.0148
947;1.2801;-2.5634;0.0000;-0.0198;-0.0199
948;1.5919;-2.5634;0.0000;-0.0321;-0.0201
949;1.9038;-2.5635;0.0000;-0.0346;-0.0195
950;2.2159;-2.5635;0.0000;-0.0231;-0.0311
951;2.5286;-2.5635;0.0000;-0.0311;-0.0404
952;2.8433;-2.5638;0.0000;-0.0345;-0.0380
953;3.1636;-2.5631;0.0000;-0.0219;-0.0366
954;3.4977;-2.5502;0.0000;-0.0202;-0.0349
955;-4.4209;-2.8233;0.0000;0.0099;0.0524
956;-4.1412;-2.8311;0.0000;0.0167;0.0456
957;-3.8483;-2.8332;0.0000;0.0167;0.0472
958;-3.5463;-2.8333;0.0000;0.0082;0.0457
959;-3.2391;-2.8331;0.0000;0.0083;0.0347
960;-2.9292;-2.8330;0.0000;0.0051;0.0183
961;-2.6181;-2.8329;0.0000;0.0008;0.0097
962;-2.3065;-2.8330;0.0000;-0.0015;0.0095
963;-1.9947;-2.8330;0.0000;-0.0058;0.0136
964;-1.6829;-2.8330;0.0000;-0.0176;0.0103
965;-1.3710;-2.8330;0.0000;-0.0230;-0.0020
966;-1.0591;-2.8332;0.0000;-0.0101;-0.0049
967;-0.7472;-2.8332;0.0000;0.0001;-0.0063
968;-0.4353;-2.8332;0.0000;-0.0030;-0.0128
969;-0.1233;-2.8332;0.0000;-0.0186;-0.0214
970;0.1885;-2.8333;0.0000;-0.0169;-0.0216
971;0.5004;-2.8334;0.0000;-0.0148;-0.0098
972;0.8123;-2.8334;0.0000;-0.0210;-0.0128
973;1.1242;-2.8334;0.0000;-0.0147;-0.0270
974;1.4361;-2.8334;0.0000;-0.0194;-0.0294
975;1.7479;-2.8335;0.0000;-0.0356;-0.0288
976;2.0598;-2.8335;0.0000;-0.0300;-0.0320
977;2.3721;-2.8334;0.0000;-0.0186;-0.0342
978;2.6849;-2.8333;0.0000;-0.0271;-0.0361
979;2.9986;-2.8331;0.0000;-0.0342;-0.0347
980;3.3098;-2.8327;0.0000;-0.0291;-0.0344
981;3.5908;-2.8329;0.0000;-0.0253;-0.0390
982;-4.2997;-3.0914;0.0000;0.0141;0.0492
983;-4.0002;-3.1022;0.0000;0.0204;0.0453
984;-3.6990;-3.1038;0.0000;0.0152;0.0454
985;-3.3932;-3.1035;0.0000;0.0099;0.0483
986;-3.0843;-3.1033;0.0000;0.0059;0.0447
987;-2.7737;-3.1031;0.0000;-0.0037;0.0403
988;-2.4623;-3.1031;0.0000;-0.0036;0.0276
989;-2.1506;-3.1032;0.0000;-0.0024;0.0116
990;-1.8388;-3.1032;0.0000;-0.0060;0.0120
991;-1.5269;-3.1032;0.0000;-0.0201;0.0106
992;-1.2151;-3.1032;0.0000;-0.0180;-0.0005
993;-0.9031;-3.1033;0.0000;-0.0060;-0.0020
994;-0.5912;-3.1034;0.0000;-0.0048;0.0031
995;-0.2793;-3.1034;0.0000;-0.0137;-0.0002
996;0.0326;-3.1033;0.0000;-0.0151;-0.0095
997;0.3445;-3.1034;0.0000;-0.0076;-0.0135
998;0.6564;-3.1035;0.0000;-0.0180;-0.0164
999;0.9683;-3.1035;0.0000;-0.0214;-0.0235
1000;1.2802;-3.1035;0.0000;-0.0133;-0.0271
1001;1.5921;-3.1035;0.0000;-0.0174;-0.0322
1002;1.9040;-3.1036;0.0000;-0.0322;-0.0386
1003;2.2161;-3.1035;0.0000;-0.0285;-0.0251
1004;2.5288;-3.1033;0.0000;-0.0246;-0.0105
1005;2.8436;-3.1028;0.0000;-0.0294;-0.0220
1006;3.1636;-3.1029;0.0000;-0.0337;-0.0322
1007;3.4969;-3.1157;0.0000;-0.0307;-0.0383
1008;-4.3926;-3.3458;0.0000;0.0119;0.0485
1009;-4.1348;-3.3705;0.0000;0.0139;0.0513
1010;-3.8468;-3.3746;0.0000;0.0170;0.0455
1011;-3.5459;-3.3744;0.0000;0.0133;0.0374
1012;-3.2389;-3.3738;0.0000;0.0154;0.0393
1013;-2.9291;-3.3736;0.0000;0.0000;0.0494
1014;-2.6181;-3.3735;0.0000;-0.0080;0.0444
1015;-2.3065;-3.3734;0.0000;-0.0046;0.0212
1016;-1.9947;-3.3733;0.0000;-0.0051;0.0046
1017;-1.6829;-3.3734;0.0000;-0.0069;0.0006
1018;-1.3709;-3.3734;0.0000;-0.0118;0.0074
1019;-1.0590;-3.3734;0.0000;-0.0126;0.0097
1020;-0.7472;-3.3735;0.0000;-0.0116;0.0001
1021;-0.4353;-3.3736;0.0000;-0.0065;-0.0053
1022;-0.1233;-3.3735;0.0000;-0.0120;-0.0067
1023;0.1886;-3.3735;0.0000;-0.0049;-0.0097
1024;0.5005;-3.3736;0.0000;-0.0082;-0.0183
1025;0.8124;-3.3736;0.0000;-0.0283;-0.0226
1026;1.1242;-3.3736;0.0000;-0.0247;-0.0192
1027;1.4361;-3.3736;0.0000;-0.0094;-0.0202
1028;1.7481;-3.3736;0.0000;-0.0226;-0.0303
1029;2.0599;-3.3736;0.0000;-0.0370;-0.0350
1030;2.3719;-3.3735;0.0000;-0.0254;-0.0226
1031;2.6840;-3.3731;0.0000;-0.0201;-0.0156
1032;2.9948;-3.3727;0.0000;-0.0270;-0.0264
1033;3.2992;-3.3768;0.0000;-0.0348;-0.0433
1034;3.5776;-3.4070;0.0000;-0.0313;-0.0452
1035;-4.3175;-3.6320;0.0000;0.0092;0.0535
1036;-4.0077;-3.6443;0.0000;0.0147;0.0548
1037;-3.7016;-3.6451;0.0000;0.0127;0.0506
1038;-3.3941;-3.6444;0.0000;0.0146;0.0531
1039;-3.0846;-3.6440;0.0000;0.0120;0.0494
1040;-2.7738;-3.6439;0.0000;-0.0009;0.0323
1041;-2.4624;-3.6437;0.0000;-0.0072;0.0262
1042;-2.1506;-3.6436;0.0000;-0.0061;0.0260
1043;-1.8388;-3.6436;0.0000;-0.0029;0.0140
1044;-1.5269;-3.6436;0.0000;-0.0047;0.0127
1045;-1.2150;-3.6437;0.0000;-0.0058;0.0180
1046;-0.9031;-3.6437;0.0000;-0.0143;0.0001
1047;-0.5912;-3.6437;0.0000;-0.0127;-0.0172
1048;-0.2793;-3.6437;0.0000;-0.0105;-0.0141
1049;0.0326;-3.6436;0.0000;-0.0123;-0.0090
1050;0.3445;-3.6437;0.0000;-0.0031;-0.0119
1051;0.6565;-3.6437;0.0000;-0.0148;-0.0169
1052;0.9683;-3.6437;0.0000;-0.0289;-0.0107
1053;1.2802;-3.6437;0.0000;-0.0203;-0.0041
1054;1.5921;-3.6437;0.0000;-0.0193;-0.0170
1055;1.9040;-3.6437;0.0000;-0.0305;-0.0312
1056;2.2159;-3.6436;0.0000;-0.0271;-0.0380
1057;2.5281;-3.6436;0.0000;-0.0171;-0.0386
1058;2.8406;-3.6435;0.0000;-0.0195;-0.0323
1059;3.1538;-3.6455;0.0000;-0.0298;-0.0365
1060;3.4726;-3.6577;0.0000;-0.0320;-0.0367
1061;-4.4039;-3.9064;0.0000;0.0022;0.0379
1062;-4.1440;-3.9141;0.0000;0.0156;0.0400
1063;-3.8508;-3.9154;0.0000;0.0188;0.0455
1064;-3.5474;-3.9153;0.0000;0.0149;0.0560
1065;-3.2394;-3.9150;0.0000;0.0098;0.0551
1066;-2.9293;-3.9146;0.0000;0.0061;0.0339
1067;-2.6181;-3.9144;0.0000;-0.0022;0.0260
1068;-2.3065;-3.9143;0.0000;-0.0096;0.0378
1069;-1.9947;-3.9142;0.0000;0.0016;0.0370
1070;-1.6828;-3.9141;0.0000;-0.0008;0.0293
1071;-1.3709;-3.9142;0.0000;-0.0068;0.0206
1072;-1.0590;-3.9142;0.0000;-0.0124;0.0068
1073;-0.7471;-3.9141;0.0000;-0.0198;-0.0041
1074;-0.4352;-3.9140;0.0000;-0.0109;-0.0135
1075;-0.1233;-3.9140;0.0000;-0.0093;-0.0152
1076;0.1886;-3.9140;0.0000;-0.0108;-0.0122
1077;0.5005;-3.9140;0.0000;-0.0076;-0.0083
1078;0.8124;-3.9139;0.0000;-0.0232;-0.0041
1079;1.1243;-3.9139;0.0000;-0.0237;-0.0040
1080;1.4361;-3.9139;0.0000;-0.0165;-0.0123
1081;1.7481;-3.9137;0.0000;-0.0181;-0.0244
1082;2.0600;-3.9137;0.0000;-0.0270;-0.0299
1083;2.3719;-3.9136;0.0000;-0.0281;-0.0301
1084;2.6837;-3.9136;0.0000;-0.0133;-0.0263
1085;2.9946;-3.9141;0.0000;-0.0166;-0.0224
1086;3.3030;-3.9164;0.0000;-0.0379;-0.0180
1087;3.6073;-3.9216;0.0000;-0.0387;-0.0169
1088;-4.3197;-4.1921;0.0000;0.0006;0.0323
1089;-4.0083;-4.1867;0.0000;0.0192;0.0342
1090;-3.7018;-4.1869;0.0000;0.0188;0.0368
1091;-3.3940;-4.1867;0.0000;0.0074;0.0353
1092;-3.0844;-4.1864;0.0000;0.0060;0.0350
1093;-2.7735;-4.1860;0.0000;0.0032;0.0321
1094;-2.4620;-4.1858;0.0000;-0.0057;0.0321
1095;-2.1503;-4.1857;0.0000;-0.0052;0.0353
1096;-1.8384;-4.1854;0.0000;0.0040;0.0362
1097;-1.5265;-4.1853;0.0000;-0.0015;0.0262
1098;-1.2146;-4.1852;0.0000;-0.0104;0.0079
1099;-0.9027;-4.1850;0.0000;-0.0217;0.0028
1100;-0.5908;-4.1849;0.0000;-0.0176;0.0036
1101;-0.2789;-4.1847;0.0000;-0.0071;0.0000
1102;0.0330;-4.1845;0.0000;-0.0106;-0.0004
1103;0.3449;-4.1845;0.0000;-0.0046;-0.0005
1104;0.6569;-4.1844;0.0000;-0.0111;-0.0025
1105;0.9687;-4.1842;0.0000;-0.0233;-0.0113
1106;1.2806;-4.1841;0.0000;-0.0153;-0.0184
1107;1.5925;-4.1839;0.0000;-0.0163;-0.0112
1108;1.9044;-4.1837;0.0000;-0.0213;-0.0106
1109;2.2164;-4.1836;0.0000;-0.0330;-0.0154
1110;2.5283;-4.1835;0.0000;-0.0176;-0.0125
1111;2.8406;-4.1835;0.0000;-0.0026;-0.0116
1112;3.1537;-4.1835;0.0000;-0.0293;-0.0117
1113;3.4728;-4.1784;0.0000;-0.0500;-0.0172
1114;-4.3913;-4.4800;0.0000;-0.0052;0.0269
1115;-4.1326;-4.4614;0.0000;0.0022;0.0308
1116;-3.8449;-4.4608;0.0000;0.0150;0.0303
1117;-3.5437;-4.4603;0.0000;0.0094;0.0299
1118;-3.2366;-4.4599;0.0000;0.0058;0.0297
1119;-2.9266;-4.4593;0.0000;0.0054;0.0306
1120;-2.6155;-4.4588;0.0000;-0.0002;0.0267
1121;-2.3039;-4.4585;0.0000;-0.0044;0.0226
1122;-1.9921;-4.4581;0.0000;-0.0039;0.0263
1123;-1.6802;-4.4577;0.0000;-0.0008;0.0227
1124;-1.3682;-4.4573;0.0000;-0.0032;0.0080
1125;-1.0563;-4.4569;0.0000;-0.0119;-0.0013
1126;-0.7444;-4.4566;0.0000;-0.0204;-0.0009
1127;-0.4325;-4.4562;0.0000;-0.0140;0.0048
1128;-0.1206;-4.4558;0.0000;-0.0171;0.0081
1129;0.1913;-4.4555;0.0000;-0.0113;0.0058
1130;0.5033;-4.4552;0.0000;0.0019;-0.0020
1131;0.8152;-4.4549;0.0000;-0.0108;-0.0066
1132;1.1271;-4.4545;0.0000;-0.0136;-0.0072
1133;1.4391;-4.4542;0.0000;-0.0168;-0.0064
1134;1.7509;-4.4538;0.0000;-0.0265;0.0016
1135;2.0628;-4.4534;0.0000;-0.0240;-0.0008
1136;2.3747;-4.4532;0.0000;-0.0215;-0.0131
1137;2.6862;-4.4530;0.0000;-0.0046;-0.0234
1138;2.9960;-4.4527;0.0000;-0.0134;-0.0300
1139;3.3004;-4.4507;0.0000;-0.0425;-0.0281
1140;3.5816;-4.4265;0.0000;-0.0543;-0.0298
1141;-4.2898;-4.7407;0.0000;-0.0081;0.0318
1142;-3.9902;-4.7394;0.0000;-0.0032;0.0331
1143;-3.6882;-4.7372;0.0000;0.0101;0.0256
1144;-3.3818;-4.7358;0.0000;0.0034;0.0194
1145;-3.0726;-4.7348;0.0000;0.0056;0.0178
1146;-2.7617;-4.7338;0.0000;0.0021;0.0172
1147;-2.4502;-4.7330;0.0000;-0.0027;0.0115
1148;-2.1384;-4.7323;0.0000;-0.0054;0.0062
1149;-1.8265;-4.7315;0.0000;-0.0050;0.0100
1150;-1.5145;-4.7307;0.0000;-0.0025;0.0104
1151;-1.2025;-4.7300;0.0000;0.0009;0.0025
1152;-0.8905;-4.7292;0.0000;-0.0127;-0.0037
1153;-0.5785;-4.7286;0.0000;-0.0174;-0.0027
1154;-0.2666;-4.7278;0.0000;-0.0199;0.0008
1155;0.0454;-4.7271;0.0000;-0.0216;-0.0015
1156;0.3573;-4.7265;0.0000;-0.0036;-0.0085
1157;0.6693;-4.7258;0.0000;-0.0035;-0.0078
1158;0.9813;-4.7251;0.0000;-0.0099;-0.0041
1159;1.2933;-4.7245;0.0000;-0.0081;-0.0097
1160;1.6053;-4.7238;0.0000;-0.0226;-0.0076
1161;1.9172;-4.7230;0.0000;-0.0241;0.0020
1162;2.2293;-4.7223;0.0000;-0.0157;-0.0048
1163;2.5416;-4.7216;0.0000;-0.0134;-0.0234
1164;2.8547;-4.7206;0.0000;-0.0133;-0.0327
1165;3.1711;-4.7175;0.0000;-0.0268;-0.0298
1166;3.5010;-4.7071;0.0000;-0.0479;-0.0214
1167;-4.3923;-4.9967;0.0000;-0.0021;0.0255
1168;-4.1126;-5.0173;0.0000;-0.0151;0.0359
1169;-3.8156;-5.0152;0.0000;-0.0077;0.0316
1170;-3.5109;-5.0131;0.0000;0.0026;0.0211
1171;-3.2022;-5.0114;0.0000;0.0067;0.0186
1172;-2.8916;-5.0099;0.0000;0.0035;0.0268
1173;-2.5800;-5.0085;0.0000;-0.0025;0.0300
1174;-2.2682;-5.0072;0.0000;-0.0033;0.0139
1175;-1.9561;-5.0060;0.0000;-0.0032;-0.0006
1176;-1.6440;-5.0048;0.0000;-0.0094;-0.0026
1177;-1.3319;-5.0035;0.0000;-0.0045;0.0013
1178;-1.0198;-5.0023;0.0000;-0.0027;0.0083
1179;-0.7077;-5.0011;0.0000;-0.0106;0.0043
1180;-0.3956;-4.9999;0.0000;-0.0068;-0.0055
1181;-0.0835;-4.9987;0.0000;-0.0146;-0.0086
1182;0.2286;-4.9975;0.0000;-0.0117;-0.0123
1183;0.5408;-4.9963;0.0000;-0.0087;-0.0180
1184;0.8529;-4.9952;0.0000;-0.0158;-0.0196
1185;1.1649;-4.9940;0.0000;-0.0127;-0.0193
1186;1.4770;-4.9928;0.0000;-0.0084;-0.0194
1187;1.7892;-4.9916;0.0000;-0.0158;-0.0172
1188;2.1013;-4.9904;0.0000;-0.0101;-0.0105
1189;2.4133;-4.9892;0.0000;-0.0151;-0.0165
1190;2.7245;-4.9878;0.0000;-0.0209;-0.0267
1191;3.0328;-4.9858;0.0000;-0.0192;-0.0187
1192;3.3302;-4.9807;0.0000;-0.0263;-0.0129
1193;3.5900;-4.9769;0.0000;-0.0464;-0.0168
