# Units: length:mm angle:deg time:s strain:% 
# Stage: image-000042
stage;index;relative_time;date
"image-000042";43;42.0000;"2022-09-26T12:01:32.387"
# Name : Surface_xy
id;x;y;z;epsilon_x;epsilon_y
0;-4.4744;5.7133;0.0000;-0.8690;1.3574
1;-4.1648;5.7133;0.0000;-0.8311;1.3968
2;-3.8549;5.7134;0.0000;-0.7588;1.5090
3;-3.5448;5.7134;0.0000;-0.6969;1.5327
4;-3.2347;5.7133;0.0000;-0.7530;1.5176
5;-2.9248;5.7134;0.0000;-0.8340;1.5096
6;-2.6152;5.7136;0.0000;-0.8101;1.4783
7;-2.3053;5.7137;0.0000;-0.7449;1.4503
8;-1.9953;5.7138;0.0000;-0.7593;1.4125
9;-1.6854;5.7140;0.0000;-0.7210;1.3820
10;-1.3752;5.7141;0.0000;-0.7207;1.4620
11;-1.0652;5.7140;0.0000;-0.7928;1.5757
12;-0.7555;5.7139;0.0000;-0.8294;1.6053
13;-0.4457;5.7139;0.0000;-0.7933;1.5839
14;-0.1358;5.7139;0.0000;-0.7829;1.5279
15;0.1742;5.7138;0.0000;-0.7925;1.5418
16;0.4841;5.7133;0.0000;-0.8015;1.5528
17;0.7939;5.7126;0.0000;-0.8081;1.5138
18;1.1038;5.7121;0.0000;-0.8063;1.5373
19;1.4134;5.7118;0.0000;-0.8217;1.5668
20;1.7232;5.7112;0.0000;-0.7855;1.4498
21;2.0331;5.7109;0.0000;-0.7656;1.4290
22;2.3429;5.7110;0.0000;-0.7591;1.4770
23;2.6530;5.7108;0.0000;-0.7645;1.4349
24;2.9628;5.7107;0.0000;-0.8423;1.4167
25;3.2724;5.7106;0.0000;-0.8804;1.4387
26;3.5819;5.7107;0.0000;-0.8927;1.4441
27;3.8287;5.6002;0.0000;-0.8894;1.4894
28;3.8273;5.2831;0.0000;-0.8863;1.5102
29;3.8257;4.9661;0.0000;-0.8519;1.4626
30;3.8239;4.6492;0.0000;-0.8938;1.4899
31;3.8223;4.3321;0.0000;-0.9450;1.5576
32;3.8210;4.0148;0.0000;-0.9641;1.5596
33;3.8198;3.6977;0.0000;-0.9114;1.6051
34;3.8187;3.3803;0.0000;-0.8725;1.6099
35;3.8176;3.0630;0.0000;-0.8361;1.5401
36;3.8166;2.7460;0.0000;-0.8627;1.5004
37;3.8155;2.4291;0.0000;-0.9356;1.5107
38;3.8144;2.1119;0.0000;-0.9814;1.6114
39;3.8135;1.7942;0.0000;-1.0064;1.7871
40;3.8127;1.4762;0.0000;-0.9524;1.7306
41;3.8119;1.1588;0.0000;-0.8691;1.5784
42;3.8110;0.8418;0.0000;-0.9237;1.5320
43;3.8102;0.5247;0.0000;-0.9585;1.4863
44;3.8098;0.2078;0.0000;-0.8912;1.5225
45;3.8090;-0.1095;0.0000;-0.8698;1.6247
46;3.8079;-0.4270;0.0000;-0.9326;1.6542
47;3.8071;-0.7444;0.0000;-0.8817;1.6442
48;3.8063;-1.0617;0.0000;-0.9785;1.7261
49;3.8054;-1.3798;0.0000;-1.0361;1.8281
50;3.8045;-1.6978;0.0000;-1.0523;1.7699
51;3.8038;-2.0156;0.0000;-0.9429;1.7417
52;3.8031;-2.3333;0.0000;-0.8936;1.6225
53;3.8026;-2.6502;0.0000;-0.8388;1.4130
54;3.8020;-2.9668;0.0000;-0.8245;1.3471
55;3.8013;-3.2832;0.0000;-0.8183;1.3375
56;3.8004;-3.5998;0.0000;-0.8228;1.3595
57;3.7995;-3.9164;0.0000;-0.8112;1.3407
58;3.7987;-4.2328;0.0000;-0.7631;1.3557
59;3.7981;-4.5495;0.0000;-0.7809;1.4639
60;3.7973;-4.8666;0.0000;-0.8688;1.5095
61;3.7966;-5.1835;0.0000;-0.8894;1.4874
62;3.7960;-5.5004;0.0000;-0.8660;1.4728
63;3.5329;-5.5740;0.0000;-0.8512;1.5001
64;3.2232;-5.5762;0.0000;-0.8263;1.5317
65;2.9135;-5.5782;0.0000;-0.8446;1.4759
66;2.6037;-5.5799;0.0000;-0.8022;1.4140
67;2.2937;-5.5817;0.0000;-0.7426;1.4200
68;1.9837;-5.5834;0.0000;-0.7616;1.3940
69;1.6738;-5.5849;0.0000;-0.7262;1.3543
70;1.3637;-5.5867;0.0000;-0.6506;1.4088
71;1.0532;-5.5883;0.0000;-0.6823;1.3814
72;0.7432;-5.5898;0.0000;-0.7792;1.3608
73;0.4335;-5.5918;0.0000;-0.7764;1.4846
74;0.1235;-5.5935;0.0000;-0.7519;1.4941
75;-0.1864;-5.5950;0.0000;-0.7766;1.4118
76;-0.4963;-5.5967;0.0000;-0.7747;1.4015
77;-0.8062;-5.5984;0.0000;-0.7704;1.3855
78;-1.1162;-5.5998;0.0000;-0.7743;1.3055
79;-1.4260;-5.6010;0.0000;-0.7854;1.2662
80;-1.7359;-5.6025;0.0000;-0.7360;1.2970
81;-2.0460;-5.6041;0.0000;-0.7126;1.3467
82;-2.3561;-5.6058;0.0000;-0.7577;1.3977
83;-2.6660;-5.6073;0.0000;-0.8461;1.4240
84;-2.9755;-5.6085;0.0000;-0.8490;1.3544
85;-3.2853;-5.6099;0.0000;-0.7698;1.3545
86;-3.5953;-5.6113;0.0000;-0.7416;1.3674
87;-3.9053;-5.6125;0.0000;-0.7561;1.3308
88;-4.2152;-5.6141;0.0000;-0.7844;1.3823
89;-4.5237;-5.5914;0.0000;-0.8366;1.3729
90;-4.5733;-5.3204;0.0000;-0.8743;1.3335
91;-4.5732;-5.0040;0.0000;-0.7454;1.3029
92;-4.5729;-4.6878;0.0000;-0.7245;1.2446
93;-4.5725;-4.3716;0.0000;-0.7964;1.3276
94;-4.5726;-4.0549;0.0000;-0.8856;1.5578
95;-4.5728;-3.7373;0.0000;-0.9000;1.6948
96;-4.5728;-3.4198;0.0000;-0.9117;1.5971
97;-4.5732;-3.1028;0.0000;-0.8381;1.4257
98;-4.5733;-2.7862;0.0000;-0.8550;1.4029
99;-4.5735;-2.4692;0.0000;-0.9601;1.6468
100;-4.5737;-2.1513;0.0000;-0.9542;1.7516
101;-4.5740;-1.8338;0.0000;-0.8832;1.7018
102;-4.5739;-1.5160;0.0000;-0.9201;1.7627
103;-4.5740;-1.1980;0.0000;-0.9753;1.6611
104;-4.5742;-0.8810;0.0000;-0.9377;1.4010
105;-4.5744;-0.5646;0.0000;-0.9151;1.3437
106;-4.5746;-0.2479;0.0000;-0.9028;1.5942
107;-4.5747;0.0698;0.0000;-0.9599;1.7337
108;-4.5749;0.3876;0.0000;-0.9576;1.6360
109;-4.5750;0.7049;0.0000;-0.9495;1.6533
110;-4.5751;1.0225;0.0000;-0.9027;1.7353
111;-4.5752;1.3402;0.0000;-0.9550;1.6967
112;-4.5755;1.6576;0.0000;-0.9294;1.7287
113;-4.5755;1.9757;0.0000;-0.9904;1.7583
114;-4.5754;2.2934;0.0000;-0.9738;1.5421
115;-4.5753;2.6099;0.0000;-0.8740;1.4871
116;-4.5751;2.9273;0.0000;-0.9134;1.7629
117;-4.5752;3.2455;0.0000;-0.9714;1.8576
118;-4.5759;3.5634;0.0000;-0.9333;1.7882
119;-4.5764;3.8813;0.0000;-0.9988;1.7191
120;-4.5769;4.1988;0.0000;-1.0458;1.5664
121;-4.5779;4.5157;0.0000;-0.9821;1.5522
122;-4.5787;4.8331;0.0000;-0.9543;1.7422
123;-4.5794;5.1512;0.0000;-0.9810;1.7044
124;-4.5803;5.4684;0.0000;-0.8909;1.5216
125;-4.2844;5.4332;0.0000;-0.8657;1.4918
126;-3.9844;5.4287;0.0000;-0.8164;1.5259
127;-3.6809;5.4258;0.0000;-0.7394;1.5739
128;-3.3740;5.4248;0.0000;-0.7259;1.5835
129;-3.0655;5.4244;0.0000;-0.7913;1.5658
130;-2.7565;5.4244;0.0000;-0.8210;1.5390
131;-2.4471;5.4246;0.0000;-0.7580;1.4954
132;-2.1373;5.4246;0.0000;-0.7529;1.4578
133;-1.8277;5.4249;0.0000;-0.7721;1.4561
134;-1.5178;5.4249;0.0000;-0.7299;1.5068
135;-1.2080;5.4245;0.0000;-0.7668;1.5834
136;-0.8984;5.4240;0.0000;-0.8115;1.6196
137;-0.5889;5.4238;0.0000;-0.8011;1.6244
138;-0.2792;5.4240;0.0000;-0.8027;1.6224
139;0.0303;5.4240;0.0000;-0.8516;1.6268
140;0.3397;5.4236;0.0000;-0.8613;1.6201
141;0.6492;5.4228;0.0000;-0.8399;1.5596
142;0.9587;5.4221;0.0000;-0.7979;1.5003
143;1.2684;5.4216;0.0000;-0.7931;1.4953
144;1.5780;5.4212;0.0000;-0.7866;1.4742
145;1.8877;5.4209;0.0000;-0.7550;1.4234
146;2.1974;5.4206;0.0000;-0.7491;1.4128
147;2.5062;5.4207;0.0000;-0.7560;1.4208
148;2.8120;5.4210;0.0000;-0.8201;1.4286
149;3.1090;5.4218;0.0000;-0.8673;1.4503
150;3.3874;5.4239;0.0000;-0.8776;1.4682
151;3.6277;5.4158;0.0000;-0.8883;1.4830
152;-4.3798;5.1468;0.0000;-0.9242;1.7086
153;-4.1082;5.1450;0.0000;-0.8711;1.6688
154;-3.8179;5.1401;0.0000;-0.8079;1.6296
155;-3.5172;5.1382;0.0000;-0.7544;1.6307
156;-3.2113;5.1377;0.0000;-0.7559;1.6208
157;-2.9032;5.1376;0.0000;-0.7762;1.5992
158;-2.5942;5.1378;0.0000;-0.7582;1.5875
159;-2.2847;5.1380;0.0000;-0.7409;1.5862
160;-1.9751;5.1381;0.0000;-0.8259;1.6334
161;-1.6658;5.1380;0.0000;-0.8247;1.6852
162;-1.3563;5.1375;0.0000;-0.7857;1.6960
163;-1.0468;5.1369;0.0000;-0.7730;1.6727
164;-0.7372;5.1366;0.0000;-0.7650;1.6406
165;-0.4275;5.1365;0.0000;-0.7912;1.6578
166;-0.1181;5.1364;0.0000;-0.8881;1.7041
167;0.1909;5.1360;0.0000;-0.9568;1.7049
168;0.4999;5.1356;0.0000;-0.9071;1.6277
169;0.8092;5.1352;0.0000;-0.8306;1.5299
170;1.1187;5.1348;0.0000;-0.7694;1.4691
171;1.4284;5.1342;0.0000;-0.7688;1.4376
172;1.7380;5.1338;0.0000;-0.7759;1.4112
173;2.0475;5.1336;0.0000;-0.7434;1.3725
174;2.3567;5.1334;0.0000;-0.7576;1.3550
175;2.6643;5.1333;0.0000;-0.8064;1.3949
176;2.9671;5.1332;0.0000;-0.8667;1.4178
177;3.2622;5.1333;0.0000;-0.8600;1.4112
178;3.5518;5.1347;0.0000;-0.8597;1.4434
179;-4.2616;4.8679;0.0000;-0.9345;1.7413
180;-3.9647;4.8579;0.0000;-0.8687;1.6922
181;-3.6652;4.8549;0.0000;-0.8035;1.6377
182;-3.3612;4.8542;0.0000;-0.7736;1.5848
183;-3.0542;4.8542;0.0000;-0.7558;1.5626
184;-2.7455;4.8543;0.0000;-0.7380;1.6054
185;-2.4363;4.8545;0.0000;-0.7307;1.6920
186;-2.1267;4.8543;0.0000;-0.8181;1.7830
187;-1.8177;4.8541;0.0000;-0.9022;1.8299
188;-1.5086;4.8538;0.0000;-0.8584;1.7854
189;-1.1992;4.8533;0.0000;-0.7694;1.6821
190;-0.8895;4.8530;0.0000;-0.7387;1.6314
191;-0.5798;4.8528;0.0000;-0.7959;1.6268
192;-0.2705;4.8526;0.0000;-0.8845;1.6364
193;0.0385;4.8522;0.0000;-0.9479;1.6486
194;0.3474;4.8519;0.0000;-0.9326;1.6127
195;0.6566;4.8517;0.0000;-0.8621;1.5626
196;0.9660;4.8514;0.0000;-0.8094;1.5341
197;1.2755;4.8510;0.0000;-0.7666;1.5107
198;1.5851;4.8506;0.0000;-0.7722;1.4824
199;1.8946;4.8504;0.0000;-0.7720;1.4484
200;2.2040;4.8502;0.0000;-0.7610;1.4050
201;2.5121;4.8499;0.0000;-0.8151;1.3916
202;2.8163;4.8494;0.0000;-0.8676;1.4158
203;3.1108;4.8493;0.0000;-0.8805;1.4072
204;3.3863;4.8465;0.0000;-0.8659;1.3982
205;3.6237;4.8469;0.0000;-0.8562;1.4271
206;-4.3534;4.6053;0.0000;-0.9626;1.6251
207;-4.0963;4.5789;0.0000;-0.9304;1.6453
208;-3.8103;4.5742;0.0000;-0.8684;1.6415
209;-3.5113;4.5737;0.0000;-0.8105;1.5906
210;-3.2064;4.5741;0.0000;-0.7978;1.5600
211;-2.8989;4.5742;0.0000;-0.7725;1.5918
212;-2.5900;4.5740;0.0000;-0.7433;1.6731
213;-2.2806;4.5737;0.0000;-0.7711;1.7410
214;-1.9714;4.5733;0.0000;-0.8474;1.7707
215;-1.6621;4.5730;0.0000;-0.8861;1.7720
216;-1.3530;4.5730;0.0000;-0.8330;1.7138
217;-1.0435;4.5729;0.0000;-0.7656;1.6457
218;-0.7339;4.5725;0.0000;-0.8227;1.6309
219;-0.4247;4.5724;0.0000;-0.8900;1.6269
220;-0.1157;4.5720;0.0000;-0.8993;1.6042
221;0.1935;4.5717;0.0000;-0.8909;1.5863
222;0.5027;4.5715;0.0000;-0.8558;1.5744
223;0.8121;4.5712;0.0000;-0.8545;1.5637
224;1.1214;4.5709;0.0000;-0.8192;1.5787
225;1.4308;4.5704;0.0000;-0.7680;1.5764
226;1.7404;4.5701;0.0000;-0.7860;1.5350
227;2.0497;4.5700;0.0000;-0.7762;1.5034
228;2.3586;4.5700;0.0000;-0.8184;1.4863
229;2.6652;4.5694;0.0000;-0.8652;1.4685
230;2.9664;4.5690;0.0000;-0.8742;1.4697
231;3.2595;4.5686;0.0000;-0.8858;1.4873
232;3.5493;4.5567;0.0000;-0.9078;1.5081
233;-4.2781;4.3108;0.0000;-0.9842;1.5728
234;-3.9694;4.2972;0.0000;-0.9306;1.5973
235;-3.6653;4.2957;0.0000;-0.8677;1.5802
236;-3.3599;4.2960;0.0000;-0.8371;1.5769
237;-3.0528;4.2963;0.0000;-0.8465;1.5985
238;-2.7445;4.2962;0.0000;-0.8139;1.6178
239;-2.4354;4.2958;0.0000;-0.7808;1.6199
240;-2.1261;4.2954;0.0000;-0.7794;1.6162
241;-1.8166;4.2951;0.0000;-0.8388;1.6415
242;-1.5074;4.2948;0.0000;-0.8723;1.6812
243;-1.1981;4.2948;0.0000;-0.8132;1.6987
244;-0.8887;4.2947;0.0000;-0.8381;1.6814
245;-0.5795;4.2944;0.0000;-0.8871;1.6504
246;-0.2703;4.2942;0.0000;-0.8639;1.6184
247;0.0389;4.2940;0.0000;-0.8455;1.5881
248;0.3482;4.2937;0.0000;-0.8477;1.5960
249;0.6576;4.2935;0.0000;-0.8722;1.6113
250;0.9667;4.2931;0.0000;-0.8855;1.5990
251;1.2759;4.2926;0.0000;-0.8064;1.5871
252;1.5856;4.2924;0.0000;-0.7701;1.5427
253;1.8950;4.2923;0.0000;-0.7953;1.4872
254;2.2041;4.2922;0.0000;-0.8096;1.4950
255;2.5116;4.2918;0.0000;-0.8615;1.5208
256;2.8143;4.2912;0.0000;-0.8504;1.5181
257;3.1054;4.2913;0.0000;-0.8474;1.5245
258;3.3750;4.2909;0.0000;-0.9065;1.5541
259;3.6125;4.2603;0.0000;-0.9608;1.5765
260;-4.3618;4.0238;0.0000;-1.0028;1.6442
261;-4.1043;4.0226;0.0000;-0.9369;1.6353
262;-3.8131;4.0201;0.0000;-0.8968;1.6334
263;-3.5117;4.0198;0.0000;-0.8654;1.6294
264;-3.2060;4.0201;0.0000;-0.8866;1.6472
265;-2.8985;4.0201;0.0000;-0.9026;1.6657
266;-2.5901;4.0198;0.0000;-0.8624;1.6371
267;-2.2810;4.0195;0.0000;-0.7960;1.6130
268;-1.9714;4.0191;0.0000;-0.8023;1.6231
269;-1.6622;4.0186;0.0000;-0.8703;1.6412
270;-1.3531;4.0183;0.0000;-0.8543;1.6652
271;-1.0437;4.0183;0.0000;-0.8412;1.6957
272;-0.7345;4.0180;0.0000;-0.8673;1.6917
273;-0.4253;4.0180;0.0000;-0.8367;1.6585
274;-0.1158;4.0178;0.0000;-0.8106;1.6506
275;0.1936;4.0175;0.0000;-0.8446;1.6548
276;0.5028;4.0172;0.0000;-0.8765;1.6541
277;0.8119;4.0169;0.0000;-0.9072;1.6440
278;1.1210;4.0166;0.0000;-0.8739;1.5960
279;1.4304;4.0162;0.0000;-0.8051;1.5209
280;1.7398;4.0163;0.0000;-0.7999;1.4666
281;2.0491;4.0163;0.0000;-0.7940;1.4658
282;2.3577;4.0159;0.0000;-0.8248;1.5149
283;2.6633;4.0150;0.0000;-0.8500;1.5619
284;2.9613;4.0137;0.0000;-0.8406;1.5752
285;3.2458;4.0136;0.0000;-0.8563;1.5629
286;3.5181;4.0150;0.0000;-0.9331;1.5526
287;-4.2800;3.7410;0.0000;-0.9481;1.7410
288;-3.9701;3.7455;0.0000;-0.8987;1.7114
289;-3.6651;3.7447;0.0000;-0.8770;1.7150
290;-3.3593;3.7446;0.0000;-0.8965;1.7682
291;-3.0523;3.7444;0.0000;-0.9434;1.7922
292;-2.7443;3.7443;0.0000;-0.9435;1.7576
293;-2.4357;3.7442;0.0000;-0.8845;1.7193
294;-2.1265;3.7437;0.0000;-0.8309;1.7017
295;-1.8172;3.7433;0.0000;-0.8308;1.6775
296;-1.5079;3.7429;0.0000;-0.8412;1.6338
297;-1.1985;3.7427;0.0000;-0.8548;1.6335
298;-0.8894;3.7424;0.0000;-0.8499;1.6631
299;-0.5801;3.7424;0.0000;-0.8344;1.6963
300;-0.2706;3.7423;0.0000;-0.8101;1.7420
301;0.0388;3.7420;0.0000;-0.8316;1.7440
302;0.3480;3.7417;0.0000;-0.8629;1.6990
303;0.6573;3.7415;0.0000;-0.8852;1.6685
304;0.9664;3.7412;0.0000;-0.8907;1.6563
305;1.2755;3.7410;0.0000;-0.8661;1.5966
306;1.5848;3.7412;0.0000;-0.8322;1.5487
307;1.8942;3.7413;0.0000;-0.8017;1.5741
308;2.2032;3.7410;0.0000;-0.8097;1.6115
309;2.5107;3.7399;0.0000;-0.8409;1.6374
310;2.8130;3.7382;0.0000;-0.8578;1.6301
311;3.1032;3.7363;0.0000;-0.8614;1.6158
312;3.3720;3.7386;0.0000;-0.8658;1.6138
313;3.6105;3.7731;0.0000;-0.9331;1.5903
314;-4.3533;3.4523;0.0000;-0.9308;1.8358
315;-4.0961;3.4692;0.0000;-0.9243;1.8299
316;-3.8093;3.4700;0.0000;-0.9204;1.8064
317;-3.5100;3.4693;0.0000;-0.9205;1.8315
318;-3.2053;3.4689;0.0000;-0.9508;1.8396
319;-2.8982;3.4689;0.0000;-0.9524;1.7942
320;-2.5900;3.4689;0.0000;-0.9246;1.7772
321;-2.2811;3.4687;0.0000;-0.8835;1.7819
322;-1.9720;3.4683;0.0000;-0.8563;1.7381
323;-1.6627;3.4680;0.0000;-0.8330;1.6635
324;-1.3534;3.4680;0.0000;-0.8530;1.6208
325;-1.0442;3.4677;0.0000;-0.8407;1.6006
326;-0.7347;3.4674;0.0000;-0.8179;1.6207
327;-0.4254;3.4670;0.0000;-0.8304;1.6982
328;-0.1161;3.4666;0.0000;-0.8297;1.7415
329;0.1932;3.4666;0.0000;-0.8540;1.7227
330;0.5025;3.4664;0.0000;-0.8746;1.7023
331;0.8116;3.4662;0.0000;-0.8713;1.7006
332;1.1210;3.4660;0.0000;-0.8500;1.6855
333;1.4303;3.4661;0.0000;-0.8620;1.6986
334;1.7394;3.4662;0.0000;-0.8542;1.7621
335;2.0487;3.4660;0.0000;-0.8451;1.8078
336;2.3571;3.4652;0.0000;-0.8735;1.8067
337;2.6632;3.4638;0.0000;-0.8585;1.7701
338;2.9640;3.4618;0.0000;-0.8547;1.7269
339;3.2563;3.4619;0.0000;-0.8450;1.6931
340;3.5452;3.4799;0.0000;-0.8625;1.6493
341;-4.2589;3.1887;0.0000;-0.9384;1.8914
342;-3.9607;3.1932;0.0000;-0.9572;1.8976
343;-3.6616;3.1936;0.0000;-0.9786;1.8827
344;-3.3583;3.1936;0.0000;-0.9750;1.8504
345;-3.0522;3.1937;0.0000;-0.9425;1.8392
346;-2.7442;3.1938;0.0000;-0.9044;1.8492
347;-2.4356;3.1936;0.0000;-0.8969;1.8606
348;-2.1266;3.1932;0.0000;-0.8980;1.8545
349;-1.8175;3.1931;0.0000;-0.8663;1.8166
350;-1.5083;3.1932;0.0000;-0.8503;1.7781
351;-1.1990;3.1931;0.0000;-0.8510;1.7269
352;-0.8897;3.1929;0.0000;-0.8108;1.6690
353;-0.5802;3.1925;0.0000;-0.8249;1.6510
354;-0.2708;3.1919;0.0000;-0.8180;1.6557
355;0.0386;3.1916;0.0000;-0.8242;1.6844
356;0.3479;3.1915;0.0000;-0.8575;1.7241
357;0.6571;3.1914;0.0000;-0.8885;1.7250
358;0.9662;3.1911;0.0000;-0.8653;1.7120
359;1.2755;3.1910;0.0000;-0.8478;1.7563
360;1.5848;3.1909;0.0000;-0.8997;1.8603
361;1.8938;3.1906;0.0000;-0.8983;1.9165
362;2.2026;3.1901;0.0000;-0.8964;1.8906
363;2.5101;3.1892;0.0000;-0.8682;1.8387
364;2.8139;3.1878;0.0000;-0.8283;1.7791
365;3.1087;3.1867;0.0000;-0.8207;1.7048
366;3.3849;3.1913;0.0000;-0.8156;1.6231
367;3.6219;3.1961;0.0000;-0.8359;1.5841
368;-4.3790;2.9234;0.0000;-0.9056;1.7522
369;-4.1002;2.9189;0.0000;-0.9494;1.7632
370;-3.8093;2.9181;0.0000;-0.9939;1.7945
371;-3.5099;2.9182;0.0000;-0.9824;1.7962
372;-3.2055;2.9183;0.0000;-0.9452;1.8026
373;-2.8983;2.9183;0.0000;-0.8892;1.8684
374;-2.5899;2.9183;0.0000;-0.8720;1.9082
375;-2.2810;2.9180;0.0000;-0.8980;1.8657
376;-1.9720;2.9178;0.0000;-0.9007;1.8512
377;-1.6629;2.9177;0.0000;-0.8674;1.8972
378;-1.3537;2.9179;0.0000;-0.8497;1.8855
379;-1.0444;2.9179;0.0000;-0.8486;1.8094
380;-0.7350;2.9179;0.0000;-0.8449;1.7455
381;-0.4258;2.9175;0.0000;-0.8327;1.6698
382;-0.1163;2.9171;0.0000;-0.7972;1.6130
383;0.1931;2.9167;0.0000;-0.8070;1.6378
384;0.5025;2.9165;0.0000;-0.8602;1.6800
385;0.8116;2.9164;0.0000;-0.8865;1.6704
386;1.1209;2.9162;0.0000;-0.8608;1.6773
387;1.4302;2.9158;0.0000;-0.9046;1.7472
388;1.7390;2.9152;0.0000;-0.9563;1.8038
389;2.0479;2.9150;0.0000;-0.9079;1.7958
390;2.3564;2.9146;0.0000;-0.8604;1.7190
391;2.6631;2.9137;0.0000;-0.8215;1.6246
392;2.9655;2.9131;0.0000;-0.7993;1.5655
393;3.2607;2.9134;0.0000;-0.8146;1.5276
394;3.5500;2.9151;0.0000;-0.8390;1.5168
395;-4.2586;2.6536;0.0000;-0.9114;1.5060
396;-3.9606;2.6443;0.0000;-0.9597;1.5442
397;-3.6616;2.6431;0.0000;-0.9746;1.6128
398;-3.3584;2.6433;0.0000;-0.9350;1.6580
399;-3.0522;2.6433;0.0000;-0.8989;1.7017
400;-2.7442;2.6430;0.0000;-0.8785;1.7578
401;-2.4355;2.6429;0.0000;-0.8723;1.7481
402;-2.1265;2.6429;0.0000;-0.8857;1.6684
403;-1.8174;2.6426;0.0000;-0.8713;1.6476
404;-1.5082;2.6424;0.0000;-0.8437;1.6908
405;-1.1988;2.6427;0.0000;-0.8499;1.6889
406;-0.8897;2.6429;0.0000;-0.8697;1.6348
407;-0.5805;2.6428;0.0000;-0.8717;1.5744
408;-0.2712;2.6428;0.0000;-0.8355;1.5376
409;0.0382;2.6425;0.0000;-0.7928;1.5379
410;0.3478;2.6421;0.0000;-0.8035;1.5761
411;0.6571;2.6418;0.0000;-0.8842;1.6282
412;0.9662;2.6417;0.0000;-0.9061;1.6438
413;1.2753;2.6414;0.0000;-0.8952;1.6148
414;1.5844;2.6408;0.0000;-0.9373;1.5689
415;1.8932;2.6404;0.0000;-0.9192;1.5387
416;2.2021;2.6402;0.0000;-0.8510;1.4988
417;2.5099;2.6400;0.0000;-0.8145;1.4337
418;2.8138;2.6397;0.0000;-0.7914;1.3936
419;3.1079;2.6398;0.0000;-0.7995;1.4004
420;3.3827;2.6364;0.0000;-0.8449;1.4525
421;3.6174;2.6313;0.0000;-0.8915;1.4925
422;-4.3524;2.3950;0.0000;-0.9252;1.4260
423;-4.0955;2.3718;0.0000;-0.9338;1.4609
424;-3.8089;2.3684;0.0000;-0.9387;1.4973
425;-3.5102;2.3686;0.0000;-0.9252;1.5585
426;-3.2057;2.3688;0.0000;-0.8922;1.5837
427;-2.8985;2.3686;0.0000;-0.8882;1.5544
428;-2.5902;2.3683;0.0000;-0.8685;1.5233
429;-2.2812;2.3684;0.0000;-0.8456;1.4983
430;-1.9720;2.3687;0.0000;-0.8457;1.4614
431;-1.6627;2.3684;0.0000;-0.8407;1.4500
432;-1.3534;2.3683;0.0000;-0.8263;1.4839
433;-1.0440;2.3686;0.0000;-0.8379;1.5114
434;-0.7347;2.3689;0.0000;-0.8760;1.5115
435;-0.4256;2.3688;0.0000;-0.8988;1.5275
436;-0.1165;2.3685;0.0000;-0.8611;1.5671
437;0.1929;2.3680;0.0000;-0.8070;1.6099
438;0.5023;2.3675;0.0000;-0.8522;1.6397
439;0.8115;2.3671;0.0000;-0.9118;1.6510
440;1.1205;2.3670;0.0000;-0.8989;1.6205
441;1.4297;2.3668;0.0000;-0.8819;1.5366
442;1.7389;2.3665;0.0000;-0.8890;1.4491
443;2.0479;2.3664;0.0000;-0.8510;1.3895
444;2.3565;2.3664;0.0000;-0.8217;1.3560
445;2.6627;2.3662;0.0000;-0.8052;1.3602
446;2.9632;2.3662;0.0000;-0.8039;1.3944
447;3.2543;2.3655;0.0000;-0.8572;1.4366
448;3.5418;2.3487;0.0000;-0.9213;1.4923
449;-4.2783;2.1056;0.0000;-0.9613;1.6315
450;-3.9693;2.0951;0.0000;-0.9130;1.5707
451;-3.6650;2.0941;0.0000;-0.8962;1.5668
452;-3.3598;2.0943;0.0000;-0.8849;1.5665
453;-3.0529;2.0944;0.0000;-0.8838;1.5268
454;-2.7447;2.0944;0.0000;-0.8751;1.4744
455;-2.4359;2.0944;0.0000;-0.8328;1.4823
456;-2.1267;2.0946;0.0000;-0.8256;1.5497
457;-1.8173;2.0945;0.0000;-0.8237;1.5865
458;-1.5080;2.0942;0.0000;-0.8357;1.6082
459;-1.1986;2.0942;0.0000;-0.8205;1.6609
460;-0.8892;2.0944;0.0000;-0.8144;1.7356
461;-0.5799;2.0943;0.0000;-0.8878;1.7991
462;-0.2709;2.0941;0.0000;-0.9283;1.8000
463;0.0382;2.0936;0.0000;-0.8858;1.7692
464;0.3475;2.0930;0.0000;-0.8478;1.7466
465;0.6567;2.0926;0.0000;-0.8785;1.7021
466;0.9658;2.0925;0.0000;-0.8845;1.6577
467;1.2751;2.0925;0.0000;-0.8534;1.6193
468;1.5844;2.0925;0.0000;-0.8377;1.5665
469;1.8936;2.0924;0.0000;-0.8333;1.5449
470;2.2026;2.0925;0.0000;-0.8114;1.5622
471;2.5101;2.0925;0.0000;-0.8254;1.5872
472;2.8124;2.0920;0.0000;-0.8329;1.6152
473;3.1022;2.0917;0.0000;-0.8684;1.6421
474;3.3697;2.0912;0.0000;-0.9085;1.6477
475;3.6071;2.0543;0.0000;-0.9642;1.6622
476;-4.3622;1.8256;0.0000;-0.9587;1.7525
477;-4.1042;1.8211;0.0000;-0.9331;1.6964
478;-3.8131;1.8205;0.0000;-0.8952;1.6465
479;-3.5119;1.8201;0.0000;-0.8695;1.6276
480;-3.2064;1.8202;0.0000;-0.8657;1.6364
481;-2.8989;1.8202;0.0000;-0.8821;1.6451
482;-2.5904;1.8201;0.0000;-0.8558;1.6886
483;-2.2813;1.8199;0.0000;-0.8271;1.7595
484;-1.9720;1.8198;0.0000;-0.8168;1.8136
485;-1.6627;1.8195;0.0000;-0.8344;1.8481
486;-1.3535;1.8192;0.0000;-0.8697;1.8817
487;-1.0442;1.8191;0.0000;-0.8274;1.9346
488;-0.7347;1.8190;0.0000;-0.8089;1.9642
489;-0.4254;1.8187;0.0000;-0.8862;1.9514
490;-0.1164;1.8186;0.0000;-0.9266;1.8922
491;0.1926;1.8182;0.0000;-0.8950;1.7970
492;0.5019;1.8178;0.0000;-0.8516;1.7100
493;0.8112;1.8178;0.0000;-0.8499;1.6730
494;1.1205;1.8178;0.0000;-0.8486;1.6848
495;1.4298;1.8179;0.0000;-0.8072;1.6903
496;1.7393;1.8179;0.0000;-0.7990;1.7138
497;2.0485;1.8177;0.0000;-0.8055;1.7814
498;2.3571;1.8176;0.0000;-0.8282;1.8672
499;2.6625;1.8168;0.0000;-0.8539;1.9247
500;2.9602;1.8157;0.0000;-0.8804;1.9066
501;3.2434;1.8149;0.0000;-0.9097;1.8643
502;3.5120;1.8187;0.0000;-0.9458;1.8313
503;-4.2786;1.5375;0.0000;-0.9378;1.7210
504;-3.9695;1.5460;0.0000;-0.9166;1.7299
505;-3.6653;1.5460;0.0000;-0.8944;1.7271
506;-3.3600;1.5456;0.0000;-0.8747;1.7322
507;-3.0530;1.5454;0.0000;-0.8662;1.7532
508;-2.7448;1.5453;0.0000;-0.8898;1.8007
509;-2.4361;1.5448;0.0000;-0.8716;1.8663
510;-2.1270;1.5446;0.0000;-0.8132;1.9042
511;-1.8175;1.5443;0.0000;-0.7927;1.9009
512;-1.5081;1.5439;0.0000;-0.8653;1.9030
513;-1.1990;1.5436;0.0000;-0.9036;1.9295
514;-0.8899;1.5435;0.0000;-0.8261;1.9302
515;-0.5804;1.5434;0.0000;-0.8031;1.8902
516;-0.2711;1.5433;0.0000;-0.8586;1.8480
517;0.0381;1.5434;0.0000;-0.8892;1.7778
518;0.3473;1.5432;0.0000;-0.8659;1.6677
519;0.6565;1.5432;0.0000;-0.8386;1.6321
520;0.9659;1.5431;0.0000;-0.8361;1.6668
521;1.2753;1.5431;0.0000;-0.8094;1.6940
522;1.5848;1.5431;0.0000;-0.7984;1.7298
523;1.8941;1.5427;0.0000;-0.8181;1.7835
524;2.2030;1.5423;0.0000;-0.8374;1.8541
525;2.5103;1.5415;0.0000;-0.8522;1.9087
526;2.8128;1.5399;0.0000;-0.8633;1.9186
527;3.1035;1.5384;0.0000;-0.8984;1.8886
528;3.3741;1.5405;0.0000;-0.9195;1.8313
529;3.6141;1.5898;0.0000;-0.9632;1.7994
530;-4.3516;1.2443;0.0000;-0.9248;1.7630
531;-4.0958;1.2683;0.0000;-0.9304;1.7971
532;-3.8095;1.2712;0.0000;-0.9149;1.7804
533;-3.5107;1.2709;0.0000;-0.9096;1.7453
534;-3.2063;1.2706;0.0000;-0.8671;1.7392
535;-2.8989;1.2704;0.0000;-0.8571;1.7620
536;-2.5905;1.2699;0.0000;-0.9239;1.7939
537;-2.2818;1.2694;0.0000;-0.8710;1.8315
538;-1.9726;1.2692;0.0000;-0.7851;1.8358
539;-1.6631;1.2690;0.0000;-0.8253;1.7970
540;-1.3539;1.2686;0.0000;-0.8939;1.7740
541;-1.0448;1.2684;0.0000;-0.8686;1.7585
542;-0.7354;1.2683;0.0000;-0.7844;1.7252
543;-0.4259;1.2683;0.0000;-0.7928;1.6991
544;-0.1164;1.2684;0.0000;-0.8310;1.6926
545;0.1929;1.2686;0.0000;-0.8348;1.6606
546;0.5023;1.2688;0.0000;-0.8356;1.6171
547;0.8116;1.2686;0.0000;-0.8475;1.6043
548;1.1208;1.2684;0.0000;-0.8247;1.6230
549;1.4303;1.2684;0.0000;-0.8292;1.6529
550;1.7395;1.2681;0.0000;-0.8492;1.6431
551;2.0486;1.2676;0.0000;-0.8357;1.6204
552;2.3572;1.2669;0.0000;-0.8399;1.6209
553;2.6635;1.2656;0.0000;-0.8448;1.6189
554;2.9644;1.2636;0.0000;-0.8851;1.6460
555;3.2567;1.2645;0.0000;-0.9363;1.6709
556;3.5459;1.2831;0.0000;-0.9297;1.6595
557;-4.2588;0.9839;0.0000;-0.9150;1.7616
558;-3.9613;0.9940;0.0000;-0.9339;1.7538
559;-3.6625;0.9956;0.0000;-0.9219;1.6797
560;-3.3593;0.9958;0.0000;-0.8936;1.6092
561;-3.0529;0.9956;0.0000;-0.8456;1.6255
562;-2.7448;0.9953;0.0000;-0.9059;1.6663
563;-2.4365;0.9947;0.0000;-0.9304;1.6921
564;-2.1274;0.9943;0.0000;-0.8132;1.7246
565;-1.8179;0.9942;0.0000;-0.7980;1.7351
566;-1.5087;0.9940;0.0000;-0.8628;1.6890
567;-1.1995;0.9938;0.0000;-0.8496;1.5956
568;-0.8901;0.9938;0.0000;-0.7908;1.5167
569;-0.5806;0.9939;0.0000;-0.7752;1.4878
570;-0.2711;0.9939;0.0000;-0.8033;1.4858
571;0.0383;0.9939;0.0000;-0.8239;1.5104
572;0.3477;0.9941;0.0000;-0.8250;1.5577
573;0.6571;0.9943;0.0000;-0.8432;1.5684
574;0.9664;0.9942;0.0000;-0.8365;1.5603
575;1.2757;0.9939;0.0000;-0.8372;1.5813
576;1.5849;0.9938;0.0000;-0.8663;1.5726
577;1.8941;0.9937;0.0000;-0.8477;1.5196
578;2.2031;0.9932;0.0000;-0.8333;1.4675
579;2.5110;0.9922;0.0000;-0.8290;1.4452
580;2.8153;0.9901;0.0000;-0.8423;1.4706
581;3.1097;0.9877;0.0000;-0.9065;1.5177
582;3.3833;0.9937;0.0000;-0.9641;1.5487
583;3.6193;1.0057;0.0000;-0.9209;1.5499
584;-4.3798;0.7122;0.0000;-0.9144;1.6404
585;-4.1010;0.7187;0.0000;-0.9187;1.6288
586;-3.8104;0.7204;0.0000;-0.9332;1.6235
587;-3.5110;0.7213;0.0000;-0.9131;1.5884
588;-3.2065;0.7216;0.0000;-0.8791;1.5627
589;-2.8992;0.7211;0.0000;-0.8632;1.5922
590;-2.5909;0.7206;0.0000;-0.9255;1.6198
591;-2.2822;0.7199;0.0000;-0.8755;1.6046
592;-1.9730;0.7195;0.0000;-0.7869;1.5935
593;-1.6635;0.7193;0.0000;-0.8259;1.5917
594;-1.3542;0.7193;0.0000;-0.8332;1.5438
595;-1.0448;0.7197;0.0000;-0.7747;1.4530
596;-0.7352;0.7200;0.0000;-0.7609;1.4052
597;-0.4257;0.7200;0.0000;-0.7766;1.3977
598;-0.1162;0.7200;0.0000;-0.8189;1.4038
599;0.1931;0.7200;0.0000;-0.8550;1.4447
600;0.5023;0.7199;0.0000;-0.8548;1.4997
601;0.8116;0.7199;0.0000;-0.8456;1.5290
602;1.1210;0.7197;0.0000;-0.8239;1.5266
603;1.4303;0.7195;0.0000;-0.8219;1.5221
604;1.7397;0.7195;0.0000;-0.8372;1.5144
605;2.0489;0.7193;0.0000;-0.8489;1.4830
606;2.3578;0.7187;0.0000;-0.8353;1.4424
607;2.6656;0.7169;0.0000;-0.8217;1.4364
608;2.9706;0.7130;0.0000;-0.8665;1.4726
609;3.2688;0.7101;0.0000;-0.9398;1.5161
610;3.5551;0.7191;0.0000;-0.9634;1.5369
611;-4.2598;0.4496;0.0000;-0.9330;1.6164
612;-3.9619;0.4457;0.0000;-0.9322;1.6508
613;-3.6630;0.4462;0.0000;-0.9246;1.6892
614;-3.3597;0.4468;0.0000;-0.9047;1.7016
615;-3.0535;0.4468;0.0000;-0.8800;1.6620
616;-2.7455;0.4462;0.0000;-0.8716;1.5980
617;-2.4368;0.4457;0.0000;-0.8796;1.5241
618;-2.1278;0.4454;0.0000;-0.8116;1.4557
619;-1.8183;0.4453;0.0000;-0.7894;1.4363
620;-1.5090;0.4451;0.0000;-0.8249;1.4388
621;-1.1996;0.4454;0.0000;-0.7829;1.4424
622;-0.8900;0.4459;0.0000;-0.7595;1.4498
623;-0.5805;0.4460;0.0000;-0.7762;1.4481
624;-0.2708;0.4461;0.0000;-0.7838;1.4597
625;0.0386;0.4460;0.0000;-0.8423;1.4946
626;0.3477;0.4459;0.0000;-0.8651;1.5205
627;0.6569;0.4458;0.0000;-0.8664;1.5360
628;0.9662;0.4456;0.0000;-0.8356;1.5509
629;1.2756;0.4454;0.0000;-0.7863;1.5389
630;1.5853;0.4453;0.0000;-0.7934;1.5156
631;1.8946;0.4452;0.0000;-0.8545;1.5043
632;2.2037;0.4450;0.0000;-0.8628;1.4853
633;2.5132;0.4443;0.0000;-0.8231;1.4593
634;2.8236;0.4419;0.0000;-0.8523;1.4541
635;3.1369;0.4388;0.0000;-0.8963;1.4667
636;3.4601;0.4468;0.0000;-0.9407;1.4777
637;-4.3546;0.1864;0.0000;-0.9543;1.7176
638;-4.0974;0.1707;0.0000;-0.9293;1.7077
639;-3.8105;0.1703;0.0000;-0.9452;1.7150
640;-3.5116;0.1714;0.0000;-0.9185;1.7098
641;-3.2070;0.1720;0.0000;-0.9066;1.6563
642;-2.8998;0.1720;0.0000;-0.8780;1.5534
643;-2.5914;0.1718;0.0000;-0.8503;1.4403
644;-2.2824;0.1716;0.0000;-0.8150;1.3819
645;-1.9730;0.1714;0.0000;-0.7694;1.3697
646;-1.6635;0.1713;0.0000;-0.7795;1.3571
647;-1.3540;0.1713;0.0000;-0.7792;1.3702
648;-1.0445;0.1716;0.0000;-0.7665;1.4345
649;-0.7350;0.1718;0.0000;-0.8131;1.4895
650;-0.4257;0.1719;0.0000;-0.8163;1.5015
651;-0.1163;0.1718;0.0000;-0.8026;1.5216
652;0.1932;0.1715;0.0000;-0.8083;1.5650
653;0.5026;0.1714;0.0000;-0.8353;1.5979
654;0.8118;0.1712;0.0000;-0.8663;1.6240
655;1.1211;0.1710;0.0000;-0.8413;1.6318
656;1.4305;0.1710;0.0000;-0.7940;1.6161
657;1.7400;0.1710;0.0000;-0.7971;1.5943
658;2.0494;0.1709;0.0000;-0.8641;1.5909
659;2.3588;0.1707;0.0000;-0.8723;1.6072
660;2.6688;0.1698;0.0000;-0.8540;1.5970
661;2.9803;0.1681;0.0000;-0.8656;1.5506
662;3.2930;0.1684;0.0000;-0.8664;1.5104
663;3.5924;0.1886;0.0000;-0.9097;1.5136
664;-4.2803;-0.0999;0.0000;-0.9250;1.6635
665;-3.9705;-0.1043;0.0000;-0.9298;1.6265
666;-3.6661;-0.1034;0.0000;-0.9313;1.5908
667;-3.3609;-0.1027;0.0000;-0.9284;1.5787
668;-3.0541;-0.1022;0.0000;-0.9167;1.5589
669;-2.7460;-0.1021;0.0000;-0.8651;1.4942
670;-2.4371;-0.1022;0.0000;-0.8180;1.4105
671;-2.1277;-0.1023;0.0000;-0.7818;1.3329
672;-1.8183;-0.1024;0.0000;-0.7469;1.2846
673;-1.5086;-0.1025;0.0000;-0.7458;1.2892
674;-1.1990;-0.1025;0.0000;-0.7445;1.3599
675;-0.8894;-0.1024;0.0000;-0.7948;1.4557
676;-0.5802;-0.1024;0.0000;-0.8474;1.5061
677;-0.2709;-0.1023;0.0000;-0.8316;1.4962
678;0.0385;-0.1026;0.0000;-0.7999;1.4864
679;0.3481;-0.1030;0.0000;-0.7865;1.5338
680;0.6576;-0.1032;0.0000;-0.8423;1.6242
681;0.9668;-0.1036;0.0000;-0.8873;1.6903
682;1.2758;-0.1037;0.0000;-0.8652;1.7184
683;1.5851;-0.1037;0.0000;-0.7937;1.7159
684;1.8948;-0.1036;0.0000;-0.8159;1.7037
685;2.2043;-0.1038;0.0000;-0.8919;1.7276
686;2.5142;-0.1041;0.0000;-0.8845;1.7654
687;2.8263;-0.1045;0.0000;-0.8586;1.7408
688;3.1435;-0.1046;0.0000;-0.8306;1.6589
689;3.4712;-0.1059;0.0000;-0.8494;1.6220
690;-4.3588;-0.3818;0.0000;-0.9124;1.4558
691;-4.1033;-0.3795;0.0000;-0.9102;1.4735
692;-3.8129;-0.3772;0.0000;-0.8913;1.4677
693;-3.5122;-0.3768;0.0000;-0.9045;1.4848
694;-3.2072;-0.3767;0.0000;-0.9189;1.5452
695;-2.8998;-0.3765;0.0000;-0.8909;1.5774
696;-2.5913;-0.3763;0.0000;-0.8726;1.5425
697;-2.2824;-0.3761;0.0000;-0.8418;1.4605
698;-1.9731;-0.3759;0.0000;-0.7620;1.3882
699;-1.6634;-0.3759;0.0000;-0.7164;1.3496
700;-1.3537;-0.3761;0.0000;-0.7261;1.3538
701;-1.0440;-0.3763;0.0000;-0.7465;1.4271
702;-0.7345;-0.3766;0.0000;-0.8025;1.4896
703;-0.4252;-0.3766;0.0000;-0.8412;1.5160
704;-0.1159;-0.3765;0.0000;-0.8530;1.5307
705;0.1933;-0.3768;0.0000;-0.8287;1.5547
706;0.5028;-0.3774;0.0000;-0.8192;1.6367
707;0.8121;-0.3781;0.0000;-0.8595;1.7152
708;1.1213;-0.3785;0.0000;-0.8551;1.7468
709;1.4307;-0.3787;0.0000;-0.8212;1.7589
710;1.7401;-0.3784;0.0000;-0.8439;1.7827
711;2.0493;-0.3785;0.0000;-0.8975;1.8167
712;2.3588;-0.3788;0.0000;-0.8818;1.8419
713;2.6692;-0.3790;0.0000;-0.8530;1.8488
714;2.9809;-0.3786;0.0000;-0.8433;1.7897
715;3.2921;-0.3787;0.0000;-0.8314;1.7177
716;3.5915;-0.4029;0.0000;-0.8581;1.6755
717;-4.2763;-0.6655;0.0000;-0.9249;1.3775
718;-3.9679;-0.6508;0.0000;-0.8692;1.4434
719;-3.6647;-0.6503;0.0000;-0.8480;1.5037
720;-3.3600;-0.6506;0.0000;-0.8801;1.5398
721;-3.0533;-0.6509;0.0000;-0.8793;1.5686
722;-2.7453;-0.6508;0.0000;-0.8876;1.5992
723;-2.4366;-0.6506;0.0000;-0.9066;1.6158
724;-2.1277;-0.6502;0.0000;-0.8355;1.6260
725;-1.8182;-0.6501;0.0000;-0.7394;1.6114
726;-1.5085;-0.6500;0.0000;-0.7360;1.5691
727;-1.1989;-0.6502;0.0000;-0.7466;1.5391
728;-0.8893;-0.6507;0.0000;-0.7402;1.5297
729;-0.5797;-0.6508;0.0000;-0.7802;1.5470
730;-0.2703;-0.6509;0.0000;-0.8383;1.6201
731;0.0389;-0.6512;0.0000;-0.8842;1.6820
732;0.3481;-0.6518;0.0000;-0.8619;1.6999
733;0.6574;-0.6527;0.0000;-0.8476;1.7060
734;0.9666;-0.6532;0.0000;-0.8461;1.6974
735;1.2760;-0.6535;0.0000;-0.8101;1.7048
736;1.5855;-0.6535;0.0000;-0.8201;1.7693
737;1.8948;-0.6536;0.0000;-0.8905;1.8299
738;2.2041;-0.6538;0.0000;-0.8840;1.8321
739;2.5141;-0.6540;0.0000;-0.8523;1.8035
740;2.8254;-0.6538;0.0000;-0.8503;1.7529
741;3.1392;-0.6540;0.0000;-0.8570;1.7095
742;3.4581;-0.6576;0.0000;-0.8633;1.6805
743;-4.3496;-0.9593;0.0000;-0.9550;1.4757
744;-4.0917;-0.9250;0.0000;-0.8692;1.5067
745;-3.8073;-0.9243;0.0000;-0.8106;1.5891
746;-3.5098;-0.9249;0.0000;-0.8285;1.6294
747;-3.2059;-0.9252;0.0000;-0.8591;1.6198
748;-2.8989;-0.9253;0.0000;-0.8671;1.6503
749;-2.5906;-0.9253;0.0000;-0.9085;1.7247
750;-2.2820;-0.9251;0.0000;-0.9034;1.7803
751;-1.9729;-0.9250;0.0000;-0.8044;1.7898
752;-1.6634;-0.9248;0.0000;-0.7658;1.7585
753;-1.3539;-0.9247;0.0000;-0.7761;1.7145
754;-1.0443;-0.9249;0.0000;-0.7224;1.6694
755;-0.7345;-0.9251;0.0000;-0.7283;1.6468
756;-0.4249;-0.9253;0.0000;-0.7973;1.6637
757;-0.1155;-0.9258;0.0000;-0.8571;1.7012
758;0.1936;-0.9263;0.0000;-0.8962;1.7286
759;0.5027;-0.9269;0.0000;-0.8544;1.7155
760;0.8121;-0.9276;0.0000;-0.8319;1.6656
761;1.1214;-0.9280;0.0000;-0.8420;1.6417
762;1.4307;-0.9282;0.0000;-0.8348;1.6742
763;1.7401;-0.9286;0.0000;-0.8395;1.7187
764;2.0495;-0.9288;0.0000;-0.8473;1.7279
765;2.3591;-0.9289;0.0000;-0.8245;1.6892
766;2.6691;-0.9289;0.0000;-0.8182;1.6313
767;2.9789;-0.9292;0.0000;-0.8562;1.6284
768;3.2848;-0.9332;0.0000;-0.8969;1.6668
769;3.5692;-0.9164;0.0000;-0.9124;1.6639
770;-4.2460;-1.1988;0.0000;-0.9178;1.6650
771;-3.9553;-1.1999;0.0000;-0.8142;1.6813
772;-3.6600;-1.2002;0.0000;-0.7794;1.6717
773;-3.3580;-1.2000;0.0000;-0.8116;1.6679
774;-3.0523;-1.2000;0.0000;-0.8568;1.7183
775;-2.7446;-1.2003;0.0000;-0.8745;1.8058
776;-2.4360;-1.2004;0.0000;-0.8933;1.8760
777;-2.1271;-1.2002;0.0000;-0.8422;1.8792
778;-1.8177;-1.2000;0.0000;-0.8008;1.8655
779;-1.5084;-1.1997;0.0000;-0.8076;1.9052
780;-1.1990;-1.1996;0.0000;-0.7714;1.9261
781;-0.8893;-1.1999;0.0000;-0.7424;1.8814
782;-0.5798;-1.2000;0.0000;-0.8037;1.8408
783;-0.2705;-1.2003;0.0000;-0.8418;1.7959
784;0.0389;-1.2008;0.0000;-0.8573;1.7798
785;0.3482;-1.2015;0.0000;-0.8578;1.7778
786;0.6575;-1.2021;0.0000;-0.8178;1.7107
787;0.9669;-1.2024;0.0000;-0.8239;1.6503
788;1.2762;-1.2027;0.0000;-0.8569;1.6367
789;1.5854;-1.2030;0.0000;-0.8371;1.6192
790;1.8948;-1.2033;0.0000;-0.8134;1.5943
791;2.2046;-1.2034;0.0000;-0.7880;1.5734
792;2.5150;-1.2033;0.0000;-0.7697;1.5501
793;2.8275;-1.2030;0.0000;-0.8121;1.5814
794;3.1455;-1.2038;0.0000;-0.9120;1.6688
795;3.4811;-1.2079;0.0000;-0.9813;1.7549
796;-4.3486;-1.4368;0.0000;-0.9212;1.7503
797;-4.0905;-1.4743;0.0000;-0.8345;1.7157
798;-3.8065;-1.4764;0.0000;-0.7949;1.6928
799;-3.5093;-1.4754;0.0000;-0.7745;1.6818
800;-3.2053;-1.4750;0.0000;-0.8170;1.7000
801;-2.8984;-1.4753;0.0000;-0.8526;1.7446
802;-2.5902;-1.4757;0.0000;-0.8680;1.7713
803;-2.2814;-1.4757;0.0000;-0.8449;1.7850
804;-1.9721;-1.4753;0.0000;-0.8066;1.8264
805;-1.6627;-1.4752;0.0000;-0.7992;1.9232
806;-1.3532;-1.4755;0.0000;-0.8146;2.0170
807;-1.0438;-1.4755;0.0000;-0.7925;2.0119
808;-0.7344;-1.4754;0.0000;-0.8097;1.9778
809;-0.4250;-1.4755;0.0000;-0.8608;1.9705
810;-0.1159;-1.4756;0.0000;-0.8847;1.9420
811;0.1933;-1.4763;0.0000;-0.8644;1.8625
812;0.5026;-1.4767;0.0000;-0.8280;1.7494
813;0.8120;-1.4769;0.0000;-0.7952;1.6826
814;1.1215;-1.4771;0.0000;-0.7997;1.6604
815;1.4309;-1.4774;0.0000;-0.8064;1.6195
816;1.7404;-1.4775;0.0000;-0.8109;1.5675
817;2.0498;-1.4776;0.0000;-0.8034;1.5407
818;2.3595;-1.4775;0.0000;-0.7643;1.5516
819;2.6696;-1.4772;0.0000;-0.7695;1.5936
820;2.9790;-1.4768;0.0000;-0.8572;1.6561
821;3.2842;-1.4770;0.0000;-0.9660;1.7456
822;3.5655;-1.5000;0.0000;-1.0390;1.8054
823;-4.2761;-1.7316;0.0000;-0.8615;1.6903
824;-3.9672;-1.7497;0.0000;-0.7856;1.6498
825;-3.6640;-1.7507;0.0000;-0.7796;1.6632
826;-3.3593;-1.7499;0.0000;-0.8034;1.7009
827;-3.0526;-1.7498;0.0000;-0.8168;1.6751
828;-2.7445;-1.7502;0.0000;-0.8129;1.6150
829;-2.4355;-1.7503;0.0000;-0.8178;1.5891
830;-2.1264;-1.7502;0.0000;-0.8220;1.6417
831;-1.8171;-1.7503;0.0000;-0.8215;1.7072
832;-1.5077;-1.7507;0.0000;-0.8224;1.7249
833;-1.1985;-1.7510;0.0000;-0.8276;1.7728
834;-0.8891;-1.7508;0.0000;-0.8342;1.8667
835;-0.5797;-1.7510;0.0000;-0.8466;1.9203
836;-0.2704;-1.7512;0.0000;-0.8977;1.9413
837;0.0386;-1.7515;0.0000;-0.8844;1.8993
838;0.3478;-1.7516;0.0000;-0.8411;1.7928
839;0.6572;-1.7516;0.0000;-0.7986;1.7287
840;0.9667;-1.7517;0.0000;-0.7661;1.6992
841;1.2763;-1.7519;0.0000;-0.7619;1.6520
842;1.5859;-1.7519;0.0000;-0.7755;1.6033
843;1.8954;-1.7519;0.0000;-0.8176;1.5698
844;2.2050;-1.7520;0.0000;-0.8083;1.5703
845;2.5149;-1.7520;0.0000;-0.7902;1.6129
846;2.8255;-1.7519;0.0000;-0.8229;1.6660
847;3.1378;-1.7520;0.0000;-0.9166;1.7186
848;3.4561;-1.7583;0.0000;-1.0081;1.7473
849;-4.3590;-2.0160;0.0000;-0.8898;1.7164
850;-4.1036;-2.0200;0.0000;-0.7837;1.7046
851;-3.8127;-2.0243;0.0000;-0.7535;1.6708
852;-3.5117;-2.0246;0.0000;-0.7921;1.6844
853;-3.2064;-2.0245;0.0000;-0.8168;1.6896
854;-2.8987;-2.0245;0.0000;-0.7847;1.6486
855;-2.5899;-2.0245;0.0000;-0.7755;1.6409
856;-2.2807;-2.0246;0.0000;-0.7990;1.6937
857;-1.9715;-2.0247;0.0000;-0.8398;1.7139
858;-1.6623;-2.0248;0.0000;-0.8355;1.6487
859;-1.3529;-2.0251;0.0000;-0.8098;1.6173
860;-1.0434;-2.0257;0.0000;-0.8456;1.6995
861;-0.7344;-2.0260;0.0000;-0.9008;1.7824
862;-0.4252;-2.0262;0.0000;-0.8922;1.8055
863;-0.1160;-2.0265;0.0000;-0.8743;1.7900
864;0.1933;-2.0265;0.0000;-0.8383;1.7482
865;0.5026;-2.0264;0.0000;-0.8128;1.7168
866;0.8121;-2.0265;0.0000;-0.7655;1.7002
867;1.1217;-2.0265;0.0000;-0.7379;1.6533
868;1.4314;-2.0264;0.0000;-0.7610;1.6042
869;1.7409;-2.0264;0.0000;-0.8180;1.5898
870;2.0502;-2.0263;0.0000;-0.8521;1.5814
871;2.3597;-2.0264;0.0000;-0.8100;1.5877
872;2.6695;-2.0266;0.0000;-0.8085;1.6313
873;2.9789;-2.0265;0.0000;-0.8754;1.6961
874;3.2859;-2.0255;0.0000;-0.9621;1.7209
875;3.5892;-2.0207;0.0000;-0.9626;1.7280
876;-4.2801;-2.2988;0.0000;-0.8608;1.7089
877;-3.9708;-2.2969;0.0000;-0.7387;1.6883
878;-3.6658;-2.2986;0.0000;-0.7483;1.6785
879;-3.3600;-2.2989;0.0000;-0.8109;1.6624
880;-3.0529;-2.2990;0.0000;-0.8121;1.6565
881;-2.7445;-2.2992;0.0000;-0.7797;1.6910
882;-2.4354;-2.2996;0.0000;-0.7855;1.7642
883;-2.1261;-2.2999;0.0000;-0.8018;1.8187
884;-1.8167;-2.2998;0.0000;-0.8248;1.8031
885;-1.5075;-2.2996;0.0000;-0.8272;1.7514
886;-1.1980;-2.3001;0.0000;-0.8179;1.7247
887;-0.8887;-2.3007;0.0000;-0.8867;1.7204
888;-0.5797;-2.3010;0.0000;-0.9254;1.7247
889;-0.2707;-2.3013;0.0000;-0.8990;1.7191
890;0.0386;-2.3013;0.0000;-0.8433;1.7012
891;0.3480;-2.3012;0.0000;-0.8046;1.6747
892;0.6574;-2.3011;0.0000;-0.7837;1.6403
893;0.9669;-2.3011;0.0000;-0.7565;1.5786
894;1.2766;-2.3009;0.0000;-0.7526;1.5190
895;1.5862;-2.3008;0.0000;-0.8002;1.5217
896;1.8955;-2.3008;0.0000;-0.8593;1.5560
897;2.2048;-2.3008;0.0000;-0.8521;1.5627
898;2.5146;-2.3010;0.0000;-0.7993;1.5540
899;2.8251;-2.3014;0.0000;-0.8086;1.5775
900;3.1367;-2.3003;0.0000;-0.9095;1.6116
901;3.4541;-2.2890;0.0000;-0.9406;1.6390
902;-4.3538;-2.5843;0.0000;-0.8447;1.5096
903;-4.0970;-2.5714;0.0000;-0.7530;1.5276
904;-3.8104;-2.5722;0.0000;-0.7608;1.5638
905;-3.5110;-2.5731;0.0000;-0.8036;1.5832
906;-3.2062;-2.5734;0.0000;-0.8133;1.5822
907;-2.8987;-2.5736;0.0000;-0.7991;1.5764
908;-2.5900;-2.5741;0.0000;-0.8081;1.5782
909;-2.2810;-2.5746;0.0000;-0.8135;1.6009
910;-1.9716;-2.5749;0.0000;-0.7831;1.6277
911;-1.6621;-2.5747;0.0000;-0.8123;1.6675
912;-1.3528;-2.5747;0.0000;-0.8340;1.7000
913;-1.0435;-2.5752;0.0000;-0.8288;1.6784
914;-0.7341;-2.5756;0.0000;-0.8699;1.6524
915;-0.4250;-2.5759;0.0000;-0.9125;1.6563
916;-0.1160;-2.5760;0.0000;-0.8895;1.6494
917;0.1932;-2.5760;0.0000;-0.8138;1.6210
918;0.5028;-2.5757;0.0000;-0.7676;1.5962
919;0.8124;-2.5755;0.0000;-0.7814;1.5541
920;1.1218;-2.5751;0.0000;-0.7938;1.5162
921;1.4313;-2.5748;0.0000;-0.8151;1.5171
922;1.7406;-2.5750;0.0000;-0.8390;1.5242
923;2.0500;-2.5751;0.0000;-0.8493;1.5272
924;2.3594;-2.5752;0.0000;-0.8222;1.5177
925;2.6690;-2.5757;0.0000;-0.7784;1.5007
926;2.9778;-2.5764;0.0000;-0.8131;1.4862
927;3.2806;-2.5729;0.0000;-0.9180;1.4782
928;3.5604;-2.5429;0.0000;-0.8977;1.4806
929;-4.2596;-2.8483;0.0000;-0.7878;1.3718
930;-3.9619;-2.8468;0.0000;-0.7671;1.4191
931;-3.6627;-2.8474;0.0000;-0.8102;1.4760
932;-3.3593;-2.8476;0.0000;-0.8017;1.4892
933;-3.0526;-2.8477;0.0000;-0.7890;1.4929
934;-2.7444;-2.8480;0.0000;-0.8234;1.4622
935;-2.4356;-2.8484;0.0000;-0.8387;1.3951
936;-2.1265;-2.8489;0.0000;-0.8092;1.3453
937;-1.8170;-2.8489;0.0000;-0.7969;1.3910
938;-1.5077;-2.8491;0.0000;-0.8288;1.5095
939;-1.1984;-2.8496;0.0000;-0.8184;1.5704
940;-0.8889;-2.8499;0.0000;-0.8033;1.5709
941;-0.5795;-2.8502;0.0000;-0.8459;1.5726
942;-0.2703;-2.8505;0.0000;-0.8807;1.5678
943;0.0389;-2.8505;0.0000;-0.8479;1.5402
944;0.3483;-2.8501;0.0000;-0.7949;1.5194
945;0.6578;-2.8500;0.0000;-0.7978;1.5207
946;0.9672;-2.8496;0.0000;-0.8045;1.5462
947;1.2767;-2.8493;0.0000;-0.8085;1.5644
948;1.5859;-2.8493;0.0000;-0.8489;1.5578
949;1.8952;-2.8493;0.0000;-0.8593;1.5399
950;2.2048;-2.8494;0.0000;-0.8393;1.5105
951;2.5150;-2.8496;0.0000;-0.7984;1.4817
952;2.8274;-2.8502;0.0000;-0.7646;1.4482
953;3.1453;-2.8499;0.0000;-0.8324;1.4056
954;3.4765;-2.8372;0.0000;-0.8658;1.3807
955;-4.3783;-3.1102;0.0000;-0.8264;1.4537
956;-4.1009;-3.1184;0.0000;-0.7912;1.5042
957;-3.8104;-3.1212;0.0000;-0.8071;1.5410
958;-3.5110;-3.1217;0.0000;-0.8099;1.5413
959;-3.2061;-3.1218;0.0000;-0.7429;1.5222
960;-2.8985;-3.1220;0.0000;-0.7889;1.5047
961;-2.5901;-3.1221;0.0000;-0.8445;1.4505
962;-2.2811;-3.1223;0.0000;-0.8511;1.3666
963;-1.9720;-3.1224;0.0000;-0.8164;1.3424
964;-1.6625;-3.1228;0.0000;-0.8105;1.4031
965;-1.3531;-3.1235;0.0000;-0.8081;1.4534
966;-1.0437;-3.1240;0.0000;-0.7948;1.4888
967;-0.7343;-3.1244;0.0000;-0.8171;1.5269
968;-0.4249;-3.1247;0.0000;-0.8574;1.5091
969;-0.1157;-3.1247;0.0000;-0.8399;1.4811
970;0.1937;-3.1245;0.0000;-0.8051;1.5037
971;0.5032;-3.1241;0.0000;-0.8192;1.5256
972;0.8124;-3.1241;0.0000;-0.8339;1.5244
973;1.1218;-3.1238;0.0000;-0.7795;1.5322
974;1.4315;-3.1236;0.0000;-0.7915;1.5420
975;1.7409;-3.1237;0.0000;-0.8656;1.5250
976;2.0500;-3.1237;0.0000;-0.8847;1.4775
977;2.3596;-3.1235;0.0000;-0.8380;1.4242
978;2.6699;-3.1236;0.0000;-0.7646;1.3797
979;2.9815;-3.1236;0.0000;-0.7590;1.3495
980;3.2904;-3.1235;0.0000;-0.8244;1.3392
981;3.5690;-3.1239;0.0000;-0.8372;1.3357
982;-4.2583;-3.3825;0.0000;-0.8651;1.6282
983;-3.9614;-3.3942;0.0000;-0.8209;1.6434
984;-3.6627;-3.3964;0.0000;-0.8063;1.6177
985;-3.3595;-3.3963;0.0000;-0.7511;1.5940
986;-3.0527;-3.3963;0.0000;-0.7267;1.5802
987;-2.7444;-3.3963;0.0000;-0.7940;1.5544
988;-2.4356;-3.3963;0.0000;-0.8451;1.5114
989;-2.1266;-3.3964;0.0000;-0.8586;1.4776
990;-1.8174;-3.3966;0.0000;-0.8330;1.4671
991;-1.5080;-3.3972;0.0000;-0.7966;1.4386
992;-1.1985;-3.3978;0.0000;-0.7656;1.4174
993;-0.8890;-3.3984;0.0000;-0.8149;1.4416
994;-0.5797;-3.3988;0.0000;-0.8613;1.4579
995;-0.2705;-3.3988;0.0000;-0.8306;1.4423
996;0.0390;-3.3988;0.0000;-0.7942;1.4539
997;0.3484;-3.3987;0.0000;-0.7965;1.5101
998;0.6579;-3.3985;0.0000;-0.8294;1.5493
999;0.9672;-3.3982;0.0000;-0.8380;1.5540
1000;1.2766;-3.3980;0.0000;-0.8004;1.5424
1001;1.5860;-3.3979;0.0000;-0.8111;1.5016
1002;1.8954;-3.3977;0.0000;-0.8688;1.4396
1003;2.2048;-3.3975;0.0000;-0.8574;1.3931
1004;2.5151;-3.3971;0.0000;-0.7826;1.3654
1005;2.8276;-3.3967;0.0000;-0.7636;1.3394
1006;3.1452;-3.3972;0.0000;-0.7946;1.3322
1007;3.4759;-3.4106;0.0000;-0.8164;1.3409
1008;-4.3506;-3.6410;0.0000;-0.8974;1.6738
1009;-4.0952;-3.6664;0.0000;-0.8491;1.6259
1010;-3.8096;-3.6712;0.0000;-0.7989;1.5358
1011;-3.5110;-3.6711;0.0000;-0.7732;1.5061
1012;-3.2064;-3.6709;0.0000;-0.7528;1.5188
1013;-2.8990;-3.6709;0.0000;-0.7664;1.5271
1014;-2.5903;-3.6708;0.0000;-0.7830;1.5299
1015;-2.2811;-3.6706;0.0000;-0.8386;1.5403
1016;-1.9721;-3.6707;0.0000;-0.8719;1.5292
1017;-1.6630;-3.6711;0.0000;-0.8269;1.4514
1018;-1.3534;-3.6714;0.0000;-0.7494;1.3848
1019;-1.0437;-3.6720;0.0000;-0.7795;1.3759
1020;-0.7344;-3.6726;0.0000;-0.8532;1.3751
1021;-0.4252;-3.6729;0.0000;-0.8260;1.3895
1022;-0.1157;-3.6728;0.0000;-0.7781;1.4148
1023;0.1938;-3.6728;0.0000;-0.7919;1.4384
1024;0.5033;-3.6728;0.0000;-0.7907;1.4938
1025;0.8127;-3.6728;0.0000;-0.8397;1.5612
1026;1.1219;-3.6725;0.0000;-0.8656;1.5779
1027;1.4311;-3.6722;0.0000;-0.8060;1.5407
1028;1.7407;-3.6719;0.0000;-0.8228;1.4873
1029;2.0501;-3.6715;0.0000;-0.8599;1.4464
1030;2.3595;-3.6711;0.0000;-0.7801;1.4281
1031;2.6694;-3.6707;0.0000;-0.7606;1.4207
1032;2.9778;-3.6705;0.0000;-0.8150;1.3971
1033;3.2797;-3.6750;0.0000;-0.8173;1.3464
1034;3.5560;-3.7059;0.0000;-0.8129;1.3244
1035;-4.2763;-3.9319;0.0000;-0.8645;1.5900
1036;-3.9689;-3.9445;0.0000;-0.8096;1.5059
1037;-3.6654;-3.9455;0.0000;-0.7817;1.4624
1038;-3.3604;-3.9452;0.0000;-0.7813;1.4572
1039;-3.0533;-3.9450;0.0000;-0.8053;1.4612
1040;-2.7451;-3.9451;0.0000;-0.8030;1.4704
1041;-2.4361;-3.9450;0.0000;-0.8060;1.5066
1042;-2.1269;-3.9452;0.0000;-0.8288;1.5519
1043;-1.8177;-3.9451;0.0000;-0.8387;1.5286
1044;-1.5083;-3.9451;0.0000;-0.8031;1.4574
1045;-1.1988;-3.9456;0.0000;-0.7868;1.3908
1046;-0.8894;-3.9462;0.0000;-0.8102;1.3303
1047;-0.5799;-3.9466;0.0000;-0.7924;1.3076
1048;-0.2705;-3.9468;0.0000;-0.7684;1.3364
1049;0.0391;-3.9468;0.0000;-0.7997;1.3861
1050;0.3484;-3.9469;0.0000;-0.8001;1.4496
1051;0.6580;-3.9471;0.0000;-0.7777;1.4875
1052;0.9675;-3.9471;0.0000;-0.8188;1.4914
1053;1.2767;-3.9467;0.0000;-0.8347;1.5212
1054;1.5862;-3.9464;0.0000;-0.8368;1.5226
1055;1.8954;-3.9459;0.0000;-0.8764;1.4846
1056;2.2047;-3.9455;0.0000;-0.7904;1.4657
1057;2.5147;-3.9452;0.0000;-0.7371;1.4712
1058;2.8248;-3.9452;0.0000;-0.8210;1.4742
1059;3.1355;-3.9474;0.0000;-0.8367;1.4371
1060;3.4518;-3.9600;0.0000;-0.8149;1.3750
1061;-4.3618;-4.2102;0.0000;-0.8467;1.4174
1062;-4.1041;-4.2181;0.0000;-0.8349;1.4307
1063;-3.8135;-4.2197;0.0000;-0.7971;1.4508
1064;-3.5124;-4.2197;0.0000;-0.7736;1.4751
1065;-3.2068;-4.2196;0.0000;-0.8110;1.4735
1066;-2.8993;-4.2196;0.0000;-0.8338;1.4459
1067;-2.5908;-4.2196;0.0000;-0.8299;1.4488
1068;-2.2818;-4.2197;0.0000;-0.8049;1.4730
1069;-1.9723;-4.2199;0.0000;-0.7954;1.4971
1070;-1.6629;-4.2198;0.0000;-0.8234;1.5328
1071;-1.3536;-4.2198;0.0000;-0.8351;1.5103
1072;-1.0444;-4.2200;0.0000;-0.8215;1.4089
1073;-0.7350;-4.2202;0.0000;-0.7645;1.3108
1074;-0.4253;-4.2205;0.0000;-0.7491;1.2832
1075;-0.1156;-4.2207;0.0000;-0.7783;1.3338
1076;0.1937;-4.2209;0.0000;-0.8104;1.4053
1077;0.5032;-4.2213;0.0000;-0.7666;1.4257
1078;0.8128;-4.2212;0.0000;-0.7494;1.4129
1079;1.1224;-4.2210;0.0000;-0.7887;1.4316
1080;1.4318;-4.2208;0.0000;-0.8339;1.4646
1081;1.7410;-4.2203;0.0000;-0.8890;1.4832
1082;2.0502;-4.2197;0.0000;-0.8322;1.4888
1083;2.3598;-4.2193;0.0000;-0.7442;1.5119
1084;2.6694;-4.2194;0.0000;-0.8097;1.5445
1085;2.9776;-4.2201;0.0000;-0.8529;1.5373
1086;3.2835;-4.2225;0.0000;-0.8277;1.4964
1087;3.5854;-4.2276;0.0000;-0.7923;1.4062
1088;-4.2784;-4.4998;0.0000;-0.8084;1.3126
1089;-3.9698;-4.4944;0.0000;-0.8383;1.3418
1090;-3.6658;-4.4950;0.0000;-0.7983;1.3795
1091;-3.3605;-4.4952;0.0000;-0.8022;1.4303
1092;-3.0535;-4.4950;0.0000;-0.8122;1.4440
1093;-2.7451;-4.4949;0.0000;-0.8166;1.4364
1094;-2.4361;-4.4949;0.0000;-0.8195;1.4386
1095;-2.1269;-4.4950;0.0000;-0.7941;1.4396
1096;-1.8175;-4.4950;0.0000;-0.8043;1.4728
1097;-1.5082;-4.4951;0.0000;-0.8204;1.5229
1098;-1.1988;-4.4950;0.0000;-0.8130;1.5072
1099;-0.8893;-4.4948;0.0000;-0.7787;1.4350
1100;-0.5797;-4.4946;0.0000;-0.7714;1.3863
1101;-0.2703;-4.4948;0.0000;-0.7836;1.3914
1102;0.0392;-4.4952;0.0000;-0.7836;1.4067
1103;0.3488;-4.4954;0.0000;-0.7527;1.4024
1104;0.6584;-4.4955;0.0000;-0.7332;1.4036
1105;0.9680;-4.4953;0.0000;-0.7412;1.4085
1106;1.2776;-4.4950;0.0000;-0.7865;1.4226
1107;1.5871;-4.4947;0.0000;-0.8481;1.4901
1108;1.8963;-4.4942;0.0000;-0.8577;1.5742
1109;2.2057;-4.4937;0.0000;-0.8016;1.6441
1110;2.5154;-4.4936;0.0000;-0.8084;1.6662
1111;2.8250;-4.4937;0.0000;-0.8259;1.6116
1112;3.1355;-4.4937;0.0000;-0.8215;1.5388
1113;3.4522;-4.4883;0.0000;-0.8043;1.4802
1114;-4.3500;-4.7911;0.0000;-0.7581;1.2786
1115;-4.0933;-4.7726;0.0000;-0.8274;1.3105
1116;-3.8080;-4.7722;0.0000;-0.8177;1.3282
1117;-3.5094;-4.7722;0.0000;-0.7823;1.3348
1118;-3.2046;-4.7723;0.0000;-0.7876;1.3629
1119;-2.8972;-4.7720;0.0000;-0.8164;1.4049
1120;-2.5887;-4.7716;0.0000;-0.8352;1.4335
1121;-2.2796;-4.7715;0.0000;-0.8080;1.4441
1122;-1.9702;-4.7714;0.0000;-0.7796;1.4521
1123;-1.6607;-4.7714;0.0000;-0.7782;1.4658
1124;-1.3512;-4.7712;0.0000;-0.7862;1.4922
1125;-1.0417;-4.7708;0.0000;-0.7992;1.5193
1126;-0.7323;-4.7703;0.0000;-0.7985;1.5266
1127;-0.4228;-4.7701;0.0000;-0.8078;1.5035
1128;-0.1134;-4.7701;0.0000;-0.7831;1.4609
1129;0.1961;-4.7701;0.0000;-0.7437;1.4217
1130;0.5059;-4.7701;0.0000;-0.7039;1.4114
1131;0.8157;-4.7698;0.0000;-0.7152;1.4335
1132;1.1254;-4.7693;0.0000;-0.7502;1.4624
1133;1.4349;-4.7690;0.0000;-0.7944;1.5068
1134;1.7443;-4.7687;0.0000;-0.8287;1.5699
1135;2.0537;-4.7683;0.0000;-0.8221;1.6390
1136;2.3630;-4.7680;0.0000;-0.8381;1.6862
1137;2.6719;-4.7677;0.0000;-0.8218;1.6571
1138;2.9794;-4.7672;0.0000;-0.7928;1.5612
1139;3.2813;-4.7649;0.0000;-0.8114;1.4875
1140;3.5604;-4.7400;0.0000;-0.8201;1.4835
1141;-4.2499;-5.0553;0.0000;-0.7676;1.3348
1142;-3.9525;-5.0543;0.0000;-0.7994;1.3382
1143;-3.6531;-5.0524;0.0000;-0.7719;1.3319
1144;-3.3490;-5.0515;0.0000;-0.7543;1.3139
1145;-3.0421;-5.0508;0.0000;-0.8028;1.3141
1146;-2.7339;-5.0503;0.0000;-0.8483;1.3677
1147;-2.4250;-5.0498;0.0000;-0.8203;1.3930
1148;-2.1156;-5.0494;0.0000;-0.7763;1.3855
1149;-1.8061;-5.0489;0.0000;-0.7531;1.3854
1150;-1.4964;-5.0485;0.0000;-0.7602;1.4045
1151;-1.1868;-5.0480;0.0000;-0.7962;1.4760
1152;-0.8774;-5.0474;0.0000;-0.8179;1.5453
1153;-0.5679;-5.0466;0.0000;-0.7993;1.5425
1154;-0.2584;-5.0460;0.0000;-0.7753;1.4943
1155;0.0513;-5.0456;0.0000;-0.7523;1.4501
1156;0.3610;-5.0451;0.0000;-0.7299;1.4042
1157;0.6708;-5.0446;0.0000;-0.7184;1.3911
1158;0.9805;-5.0440;0.0000;-0.7277;1.4420
1159;1.2902;-5.0434;0.0000;-0.7361;1.4735
1160;1.6000;-5.0428;0.0000;-0.7620;1.4770
1161;1.9096;-5.0421;0.0000;-0.7868;1.5132
1162;2.2192;-5.0414;0.0000;-0.8067;1.5240
1163;2.5289;-5.0409;0.0000;-0.8544;1.5091
1164;2.8393;-5.0396;0.0000;-0.8283;1.5279
1165;3.1532;-5.0359;0.0000;-0.8018;1.5294
1166;3.4806;-5.0249;0.0000;-0.8419;1.5077
1167;-4.3522;-5.3145;0.0000;-0.7972;1.3492
1168;-4.0747;-5.3357;0.0000;-0.7556;1.3464
1169;-3.7798;-5.3339;0.0000;-0.7519;1.3419
1170;-3.4773;-5.3323;0.0000;-0.7437;1.3397
1171;-3.1710;-5.3309;0.0000;-0.7924;1.3297
1172;-2.8630;-5.3298;0.0000;-0.8596;1.3558
1173;-2.5541;-5.3290;0.0000;-0.8243;1.3828
1174;-2.2447;-5.3279;0.0000;-0.7608;1.3569
1175;-1.9350;-5.3269;0.0000;-0.7305;1.3247
1176;-1.6251;-5.3260;0.0000;-0.7554;1.3148
1177;-1.3154;-5.3253;0.0000;-0.7819;1.3449
1178;-1.0058;-5.3245;0.0000;-0.7913;1.4120
1179;-0.6961;-5.3233;0.0000;-0.7892;1.4579
1180;-0.3864;-5.3221;0.0000;-0.7748;1.4611
1181;-0.0766;-5.3210;0.0000;-0.7559;1.4605
1182;0.2332;-5.3199;0.0000;-0.7508;1.4507
1183;0.5429;-5.3188;0.0000;-0.7635;1.3960
1184;0.8527;-5.3178;0.0000;-0.7396;1.3705
1185;1.1626;-5.3167;0.0000;-0.6846;1.3970
1186;1.4727;-5.3156;0.0000;-0.7006;1.3910
1187;1.7826;-5.3145;0.0000;-0.7542;1.3991
1188;2.0923;-5.3135;0.0000;-0.7553;1.4363
1189;2.4021;-5.3122;0.0000;-0.7925;1.4160
1190;2.7108;-5.3108;0.0000;-0.8587;1.4212
1191;3.0164;-5.3086;0.0000;-0.8391;1.5029
1192;3.3114;-5.3030;0.0000;-0.8203;1.5365
1193;3.5690;-5.2988;0.0000;-0.8671;1.5063
