# Units: length:mm angle:deg time:s strain:% 
# Stage: image-000020
stage;index;relative_time;date
"image-000020";21;20.0000;"2022-09-26T12:01:10.387"
# Name : Surface_xy
id;x;y;z;epsilon_x;epsilon_y
0;-4.5101;5.8041;0.0000;-0.1989;0.3765
1;-4.1984;5.8042;0.0000;-0.1945;0.3712
2;-3.8866;5.8045;0.0000;-0.1782;0.4438
3;-3.5748;5.8047;0.0000;-0.1662;0.4751
4;-3.2630;5.8048;0.0000;-0.1958;0.4523
5;-2.9514;5.8050;0.0000;-0.2357;0.4232
6;-2.6399;5.8053;0.0000;-0.2317;0.4318
7;-2.3282;5.8055;0.0000;-0.2253;0.4261
8;-2.0166;5.8056;0.0000;-0.2112;0.3873
9;-1.7049;5.8057;0.0000;-0.1899;0.3904
10;-1.3931;5.8059;0.0000;-0.1914;0.4290
11;-1.0814;5.8060;0.0000;-0.2064;0.4538
12;-0.7698;5.8060;0.0000;-0.2394;0.4759
13;-0.4583;5.8062;0.0000;-0.2294;0.5043
14;-0.1466;5.8062;0.0000;-0.2048;0.4821
15;0.1652;5.8062;0.0000;-0.2052;0.4772
16;0.4769;5.8061;0.0000;-0.2279;0.4765
17;0.7884;5.8059;0.0000;-0.2387;0.4551
18;1.1001;5.8059;0.0000;-0.2172;0.4740
19;1.4117;5.8058;0.0000;-0.2250;0.4850
20;1.7233;5.8056;0.0000;-0.2096;0.4181
21;2.0349;5.8055;0.0000;-0.1919;0.3992
22;2.3466;5.8056;0.0000;-0.1885;0.4531
23;2.6584;5.8055;0.0000;-0.1890;0.4271
24;2.9701;5.8054;0.0000;-0.2128;0.4004
25;3.2817;5.8055;0.0000;-0.2292;0.4232
26;3.5933;5.8055;0.0000;-0.2327;0.4038
27;3.8418;5.6960;0.0000;-0.2089;0.4262
28;3.8405;5.3823;0.0000;-0.2232;0.4516
29;3.8392;5.0686;0.0000;-0.2038;0.4436
30;3.8379;4.7549;0.0000;-0.2267;0.4653
31;3.8367;4.4411;0.0000;-0.2555;0.5058
32;3.8356;4.1271;0.0000;-0.2582;0.5056
33;3.8344;3.8133;0.0000;-0.2628;0.5017
34;3.8334;3.4994;0.0000;-0.2368;0.5092
35;3.8324;3.1855;0.0000;-0.1982;0.5031
36;3.8313;2.8716;0.0000;-0.2152;0.4853
37;3.8303;2.5579;0.0000;-0.2523;0.4703
38;3.8293;2.2441;0.0000;-0.2752;0.5031
39;3.8284;1.9301;0.0000;-0.2887;0.5685
40;3.8276;1.6160;0.0000;-0.2717;0.5352
41;3.8268;1.3021;0.0000;-0.2400;0.4590
42;3.8259;0.9884;0.0000;-0.2904;0.4179
43;3.8251;0.6749;0.0000;-0.2994;0.3641
44;3.8245;0.3615;0.0000;-0.2385;0.3991
45;3.8236;0.0478;0.0000;-0.2445;0.4831
46;3.8227;-0.2661;0.0000;-0.2411;0.4892
47;3.8219;-0.5799;0.0000;-0.2230;0.4925
48;3.8211;-0.8938;0.0000;-0.2738;0.5127
49;3.8202;-1.2079;0.0000;-0.2889;0.5629
50;3.8193;-1.5219;0.0000;-0.3315;0.5261
51;3.8185;-1.8359;0.0000;-0.2788;0.5013
52;3.8177;-2.1497;0.0000;-0.2493;0.4522
53;3.8168;-2.4633;0.0000;-0.2526;0.3796
54;3.8160;-2.7767;0.0000;-0.2406;0.3538
55;3.8153;-3.0901;0.0000;-0.2139;0.3401
56;3.8144;-3.4034;0.0000;-0.2072;0.3508
57;3.8134;-3.7169;0.0000;-0.2002;0.3707
58;3.8124;-4.0304;0.0000;-0.2176;0.3876
59;3.8115;-4.3439;0.0000;-0.2380;0.4140
60;3.8107;-4.6576;0.0000;-0.2571;0.4557
61;3.8098;-4.9713;0.0000;-0.2736;0.4528
62;3.8090;-5.2850;0.0000;-0.2786;0.4382
63;3.5442;-5.3578;0.0000;-0.2705;0.4267
64;3.2327;-5.3597;0.0000;-0.2177;0.4356
65;2.9210;-5.3616;0.0000;-0.1976;0.4237
66;2.6092;-5.3634;0.0000;-0.1918;0.4050
67;2.2975;-5.3653;0.0000;-0.1925;0.4112
68;1.9858;-5.3672;0.0000;-0.1980;0.4300
69;1.6741;-5.3689;0.0000;-0.1509;0.4159
70;1.3621;-5.3707;0.0000;-0.1354;0.4267
71;1.0503;-5.3725;0.0000;-0.1781;0.4056
72;0.7386;-5.3742;0.0000;-0.1851;0.4052
73;0.4269;-5.3759;0.0000;-0.1843;0.4358
74;0.1151;-5.3777;0.0000;-0.1961;0.4634
75;-0.1965;-5.3795;0.0000;-0.2083;0.4530
76;-0.5082;-5.3812;0.0000;-0.1865;0.4249
77;-0.8199;-5.3828;0.0000;-0.1960;0.3953
78;-1.1317;-5.3844;0.0000;-0.2168;0.3834
79;-1.4432;-5.3860;0.0000;-0.2193;0.4074
80;-1.7548;-5.3876;0.0000;-0.1989;0.4079
81;-2.0666;-5.3893;0.0000;-0.1681;0.4126
82;-2.3784;-5.3910;0.0000;-0.2096;0.4335
83;-2.6900;-5.3927;0.0000;-0.2313;0.4813
84;-3.0016;-5.3943;0.0000;-0.1985;0.4457
85;-3.3134;-5.3959;0.0000;-0.1909;0.4391
86;-3.6251;-5.3974;0.0000;-0.1800;0.4342
87;-3.9368;-5.3989;0.0000;-0.1853;0.4183
88;-4.2485;-5.4005;0.0000;-0.1978;0.4338
89;-4.5590;-5.3783;0.0000;-0.2103;0.4297
90;-4.6092;-5.1098;0.0000;-0.2111;0.4140
91;-4.6093;-4.7963;0.0000;-0.1724;0.4144
92;-4.6094;-4.4827;0.0000;-0.1759;0.3895
93;-4.6095;-4.1692;0.0000;-0.1799;0.4155
94;-4.6099;-3.8555;0.0000;-0.1890;0.4937
95;-4.6102;-3.5415;0.0000;-0.1864;0.5465
96;-4.6105;-3.2275;0.0000;-0.2019;0.5072
97;-4.6107;-2.9137;0.0000;-0.2209;0.4569
98;-4.6111;-2.6000;0.0000;-0.1965;0.4241
99;-4.6113;-2.2863;0.0000;-0.2646;0.5162
100;-4.6116;-1.9722;0.0000;-0.2685;0.5556
101;-4.6120;-1.6583;0.0000;-0.2166;0.5199
102;-4.6122;-1.3443;0.0000;-0.2214;0.5220
103;-4.6124;-1.0303;0.0000;-0.2725;0.4567
104;-4.6128;-0.7168;0.0000;-0.2580;0.3372
105;-4.6131;-0.4036;0.0000;-0.2205;0.3159
106;-4.6132;-0.0903;0.0000;-0.2189;0.4097
107;-4.6133;0.2236;0.0000;-0.2739;0.4848
108;-4.6135;0.5374;0.0000;-0.2803;0.4484
109;-4.6136;0.8511;0.0000;-0.2648;0.4854
110;-4.6137;1.1651;0.0000;-0.2604;0.5460
111;-4.6137;1.4791;0.0000;-0.2682;0.5426
112;-4.6138;1.7931;0.0000;-0.2549;0.5675
113;-4.6138;2.1073;0.0000;-0.2841;0.6132
114;-4.6138;2.4215;0.0000;-0.2646;0.5144
115;-4.6139;2.7351;0.0000;-0.2329;0.4753
116;-4.6137;3.0491;0.0000;-0.2296;0.6024
117;-4.6139;3.3635;0.0000;-0.2734;0.6527
118;-4.6143;3.6777;0.0000;-0.2403;0.5858
119;-4.6146;3.9918;0.0000;-0.2752;0.5811
120;-4.6148;4.3059;0.0000;-0.3040;0.5135
121;-4.6153;4.6197;0.0000;-0.2937;0.4825
122;-4.6159;4.9336;0.0000;-0.2540;0.5519
123;-4.6164;5.2478;0.0000;-0.2492;0.5126
124;-4.6169;5.5615;0.0000;-0.2061;0.4430
125;-4.3189;5.5268;0.0000;-0.2042;0.4291
126;-4.0171;5.5227;0.0000;-0.1963;0.4503
127;-3.7117;5.5201;0.0000;-0.1820;0.4863
128;-3.4032;5.5192;0.0000;-0.1841;0.4918
129;-3.0930;5.5191;0.0000;-0.2138;0.4733
130;-2.7821;5.5192;0.0000;-0.2351;0.4505
131;-2.4709;5.5192;0.0000;-0.2239;0.4349
132;-2.1596;5.5193;0.0000;-0.2236;0.4181
133;-1.8481;5.5195;0.0000;-0.2102;0.4157
134;-1.5366;5.5195;0.0000;-0.2006;0.4438
135;-1.2252;5.5194;0.0000;-0.2086;0.4803
136;-0.9137;5.5193;0.0000;-0.2259;0.5024
137;-0.6023;5.5192;0.0000;-0.2352;0.5245
138;-0.2909;5.5193;0.0000;-0.2262;0.5252
139;0.0205;5.5193;0.0000;-0.2354;0.5040
140;0.3318;5.5192;0.0000;-0.2435;0.4934
141;0.6432;5.5189;0.0000;-0.2548;0.4744
142;0.9545;5.5187;0.0000;-0.2251;0.4575
143;1.2659;5.5186;0.0000;-0.2072;0.4696
144;1.5774;5.5184;0.0000;-0.2035;0.4552
145;1.8889;5.5183;0.0000;-0.1852;0.4076
146;2.2004;5.5182;0.0000;-0.1835;0.4077
147;2.5109;5.5182;0.0000;-0.1793;0.4279
148;2.8184;5.5185;0.0000;-0.2106;0.4169
149;3.1174;5.5195;0.0000;-0.2306;0.4163
150;3.3976;5.5218;0.0000;-0.2324;0.4272
151;3.6394;5.5137;0.0000;-0.2241;0.4285
152;-4.4153;5.2435;0.0000;-0.2322;0.5250
153;-4.1419;5.2419;0.0000;-0.2137;0.5226
154;-3.8497;5.2373;0.0000;-0.2014;0.5109
155;-3.5472;5.2358;0.0000;-0.2003;0.5160
156;-3.2397;5.2354;0.0000;-0.2002;0.5174
157;-2.9298;5.2355;0.0000;-0.2140;0.5150
158;-2.6191;5.2356;0.0000;-0.2206;0.5024
159;-2.3080;5.2357;0.0000;-0.2109;0.4934
160;-1.9967;5.2358;0.0000;-0.2352;0.5141
161;-1.6855;5.2357;0.0000;-0.2384;0.5310
162;-1.3742;5.2355;0.0000;-0.2258;0.5491
163;-1.0629;5.2352;0.0000;-0.2183;0.5562
164;-0.7516;5.2351;0.0000;-0.2307;0.5389
165;-0.4403;5.2349;0.0000;-0.2393;0.5447
166;-0.1290;5.2350;0.0000;-0.2590;0.5525
167;0.1820;5.2349;0.0000;-0.2899;0.5254
168;0.4931;5.2347;0.0000;-0.2767;0.4959
169;0.8043;5.2346;0.0000;-0.2334;0.4858
170;1.1157;5.2344;0.0000;-0.1891;0.4840
171;1.4271;5.2341;0.0000;-0.1932;0.4693
172;1.7385;5.2340;0.0000;-0.2044;0.4384
173;2.0498;5.2340;0.0000;-0.1866;0.4178
174;2.3607;5.2337;0.0000;-0.1700;0.4108
175;2.6702;5.2335;0.0000;-0.1894;0.4103
176;2.9749;5.2338;0.0000;-0.2371;0.4123
177;3.2719;5.2340;0.0000;-0.2271;0.4139
178;3.5633;5.2355;0.0000;-0.2131;0.4309
179;-4.2964;4.9680;0.0000;-0.2498;0.5577
180;-3.9975;4.9582;0.0000;-0.2247;0.5368
181;-3.6962;4.9554;0.0000;-0.2153;0.5125
182;-3.3905;4.9549;0.0000;-0.2122;0.5025
183;-3.0817;4.9550;0.0000;-0.1929;0.5088
184;-2.7714;4.9551;0.0000;-0.2087;0.5427
185;-2.4605;4.9552;0.0000;-0.2123;0.5853
186;-2.1494;4.9552;0.0000;-0.2320;0.6264
187;-1.8383;4.9551;0.0000;-0.2746;0.6379
188;-1.5273;4.9549;0.0000;-0.2568;0.6072
189;-1.2160;4.9546;0.0000;-0.2129;0.5661
190;-0.9047;4.9545;0.0000;-0.2249;0.5291
191;-0.5935;4.9544;0.0000;-0.2609;0.4957
192;-0.2824;4.9542;0.0000;-0.2635;0.5126
193;0.0288;4.9542;0.0000;-0.2812;0.5447
194;0.3397;4.9542;0.0000;-0.3028;0.5166
195;0.6508;4.9539;0.0000;-0.2532;0.4959
196;0.9621;4.9537;0.0000;-0.1912;0.5145
197;1.2735;4.9534;0.0000;-0.1784;0.5029
198;1.5849;4.9533;0.0000;-0.2088;0.4789
199;1.8961;4.9533;0.0000;-0.2072;0.4731
200;2.2073;4.9531;0.0000;-0.1751;0.4454
201;2.5173;4.9528;0.0000;-0.1892;0.4200
202;2.8234;4.9526;0.0000;-0.2265;0.4333
203;3.1198;4.9526;0.0000;-0.2287;0.4365
204;3.3972;4.9500;0.0000;-0.2156;0.4296
205;3.6362;4.9504;0.0000;-0.2112;0.4388
206;-4.3892;4.7084;0.0000;-0.2769;0.5025
207;-4.1304;4.6823;0.0000;-0.2608;0.5152
208;-3.8424;4.6778;0.0000;-0.2323;0.5113
209;-3.5417;4.6774;0.0000;-0.2282;0.4861
210;-3.2350;4.6777;0.0000;-0.2129;0.5029
211;-2.9256;4.6779;0.0000;-0.1985;0.5466
212;-2.6151;4.6778;0.0000;-0.2224;0.5875
213;-2.3041;4.6776;0.0000;-0.2204;0.6112
214;-1.9930;4.6774;0.0000;-0.2494;0.6198
215;-1.6819;4.6774;0.0000;-0.2780;0.6298
216;-1.3708;4.6774;0.0000;-0.2438;0.6063
217;-1.0595;4.6773;0.0000;-0.2285;0.5650
218;-0.7484;4.6772;0.0000;-0.2738;0.5444
219;-0.4374;4.6772;0.0000;-0.2786;0.5281
220;-0.1263;4.6768;0.0000;-0.2431;0.5357
221;0.1850;4.6767;0.0000;-0.2663;0.5577
222;0.4960;4.6767;0.0000;-0.2777;0.5461
223;0.8071;4.6764;0.0000;-0.2341;0.5227
224;1.1184;4.6761;0.0000;-0.1977;0.5235
225;1.4298;4.6759;0.0000;-0.2016;0.5276
226;1.7410;4.6758;0.0000;-0.2242;0.5204
227;2.0522;4.6757;0.0000;-0.1849;0.4994
228;2.3630;4.6756;0.0000;-0.1859;0.4815
229;2.6715;4.6752;0.0000;-0.2214;0.4793
230;2.9747;4.6750;0.0000;-0.2140;0.4821
231;3.2698;4.6747;0.0000;-0.2117;0.4913
232;3.5616;4.6631;0.0000;-0.2346;0.4910
233;-4.3137;4.4171;0.0000;-0.2815;0.4926
234;-4.0028;4.4038;0.0000;-0.2610;0.4945
235;-3.6968;4.4024;0.0000;-0.2470;0.4937
236;-3.3896;4.4027;0.0000;-0.2459;0.5024
237;-3.0806;4.4028;0.0000;-0.2291;0.5201
238;-2.7703;4.4028;0.0000;-0.2311;0.5396
239;-2.4596;4.4027;0.0000;-0.2342;0.5395
240;-2.1485;4.4026;0.0000;-0.2225;0.5304
241;-1.8373;4.4024;0.0000;-0.2599;0.5603
242;-1.5263;4.4022;0.0000;-0.2779;0.6123
243;-1.2151;4.4021;0.0000;-0.2397;0.6236
244;-0.9039;4.4021;0.0000;-0.2622;0.6047
245;-0.5929;4.4021;0.0000;-0.2783;0.5922
246;-0.2818;4.4019;0.0000;-0.2449;0.5752
247;0.0295;4.4017;0.0000;-0.2241;0.5621
248;0.3407;4.4015;0.0000;-0.2602;0.5815
249;0.6518;4.4015;0.0000;-0.2704;0.5811
250;0.9629;4.4012;0.0000;-0.2456;0.5480
251;1.2741;4.4008;0.0000;-0.2148;0.5464
252;1.5854;4.4007;0.0000;-0.2121;0.5421
253;1.8966;4.4007;0.0000;-0.2071;0.5181
254;2.2076;4.4006;0.0000;-0.1816;0.5193
255;2.5171;4.4002;0.0000;-0.2101;0.5207
256;2.8218;4.3998;0.0000;-0.2062;0.5061
257;3.1148;4.4000;0.0000;-0.1917;0.5058
258;3.3862;4.3999;0.0000;-0.2238;0.5150
259;3.6255;4.3698;0.0000;-0.2568;0.5165
260;-4.3984;4.1331;0.0000;-0.2744;0.5591
261;-4.1390;4.1321;0.0000;-0.2526;0.5366
262;-3.8458;4.1297;0.0000;-0.2521;0.5312
263;-3.5425;4.1294;0.0000;-0.2546;0.5472
264;-3.2350;4.1296;0.0000;-0.2642;0.5453
265;-2.9255;4.1297;0.0000;-0.2647;0.5365
266;-2.6151;4.1295;0.0000;-0.2611;0.5379
267;-2.3041;4.1294;0.0000;-0.2339;0.5458
268;-1.9930;4.1292;0.0000;-0.2392;0.5623
269;-1.6819;4.1288;0.0000;-0.2763;0.5748
270;-1.3709;4.1285;0.0000;-0.2580;0.5799
271;-1.0597;4.1285;0.0000;-0.2474;0.6011
272;-0.7486;4.1285;0.0000;-0.2610;0.6087
273;-0.4374;4.1285;0.0000;-0.2454;0.5949
274;-0.1262;4.1283;0.0000;-0.2296;0.5854
275;0.1850;4.1281;0.0000;-0.2462;0.5838
276;0.4961;4.1279;0.0000;-0.2708;0.5844
277;0.8072;4.1278;0.0000;-0.2608;0.5759
278;1.1184;4.1276;0.0000;-0.2401;0.5532
279;1.4296;4.1272;0.0000;-0.2226;0.5270
280;1.7408;4.1273;0.0000;-0.2166;0.5092
281;2.0519;4.1273;0.0000;-0.1948;0.5100
282;2.3624;4.1269;0.0000;-0.1884;0.5295
283;2.6700;4.1262;0.0000;-0.2028;0.5387
284;2.9700;4.1253;0.0000;-0.1929;0.5225
285;3.2564;4.1253;0.0000;-0.1983;0.5066
286;3.5305;4.1270;0.0000;-0.2430;0.5058
287;-4.3162;3.8533;0.0000;-0.2528;0.5795
288;-4.0041;3.8581;0.0000;-0.2413;0.5790
289;-3.6972;3.8573;0.0000;-0.2547;0.5870
290;-3.3896;3.8571;0.0000;-0.2690;0.6175
291;-3.0805;3.8571;0.0000;-0.2853;0.6343
292;-2.7704;3.8570;0.0000;-0.2968;0.6198
293;-2.4598;3.8569;0.0000;-0.2776;0.6091
294;-2.1488;3.8567;0.0000;-0.2486;0.6133
295;-1.8377;3.8564;0.0000;-0.2574;0.6068
296;-1.5266;3.8561;0.0000;-0.2538;0.5735
297;-1.2154;3.8560;0.0000;-0.2403;0.5598
298;-0.9043;3.8558;0.0000;-0.2412;0.5919
299;-0.5931;3.8558;0.0000;-0.2448;0.6279
300;-0.2819;3.8557;0.0000;-0.2491;0.6374
301;0.0292;3.8555;0.0000;-0.2481;0.6264
302;0.3404;3.8553;0.0000;-0.2567;0.6058
303;0.6515;3.8552;0.0000;-0.2566;0.5927
304;0.9627;3.8550;0.0000;-0.2380;0.5801
305;1.2739;3.8548;0.0000;-0.2381;0.5396
306;1.5851;3.8548;0.0000;-0.2371;0.5220
307;1.8963;3.8548;0.0000;-0.2115;0.5447
308;2.2071;3.8546;0.0000;-0.1965;0.5672
309;2.5165;3.8538;0.0000;-0.1960;0.5720
310;2.8208;3.8524;0.0000;-0.2003;0.5506
311;3.1130;3.8509;0.0000;-0.1942;0.5284
312;3.3836;3.8533;0.0000;-0.2032;0.5187
313;3.6237;3.8876;0.0000;-0.2547;0.5095
314;-4.3902;3.5681;0.0000;-0.2612;0.6195
315;-4.1314;3.5849;0.0000;-0.2588;0.6353
316;-3.8426;3.5856;0.0000;-0.2594;0.6426
317;-3.5413;3.5850;0.0000;-0.2712;0.6497
318;-3.2346;3.5847;0.0000;-0.2773;0.6642
319;-2.9253;3.5847;0.0000;-0.2747;0.6677
320;-2.6151;3.5846;0.0000;-0.3018;0.6569
321;-2.3044;3.5845;0.0000;-0.2838;0.6552
322;-1.9934;3.5843;0.0000;-0.2626;0.6391
323;-1.6823;3.5840;0.0000;-0.2578;0.6031
324;-1.3711;3.5839;0.0000;-0.2480;0.5902
325;-1.0599;3.5838;0.0000;-0.2339;0.5851
326;-0.7487;3.5836;0.0000;-0.2373;0.6052
327;-0.4376;3.5834;0.0000;-0.2557;0.6459
328;-0.1265;3.5832;0.0000;-0.2514;0.6498
329;0.1847;3.5831;0.0000;-0.2433;0.6301
330;0.4959;3.5830;0.0000;-0.2605;0.6248
331;0.8070;3.5829;0.0000;-0.2438;0.6257
332;1.1183;3.5828;0.0000;-0.2209;0.5989
333;1.4295;3.5828;0.0000;-0.2449;0.5838
334;1.7406;3.5827;0.0000;-0.2320;0.6110
335;2.0518;3.5825;0.0000;-0.2095;0.6378
336;2.3622;3.5820;0.0000;-0.2144;0.6295
337;2.6704;3.5809;0.0000;-0.2086;0.5954
338;2.9731;3.5792;0.0000;-0.2061;0.5678
339;3.2674;3.5796;0.0000;-0.1940;0.5475
340;3.5581;3.5976;0.0000;-0.2222;0.5206
341;-4.2954;3.3077;0.0000;-0.2694;0.6822
342;-3.9952;3.3121;0.0000;-0.2795;0.7036
343;-3.6940;3.3126;0.0000;-0.2878;0.6955
344;-3.3886;3.3126;0.0000;-0.2913;0.6637
345;-3.0803;3.3125;0.0000;-0.2590;0.6650
346;-2.7702;3.3125;0.0000;-0.2575;0.6926
347;-2.4597;3.3124;0.0000;-0.2989;0.7036
348;-2.1489;3.3122;0.0000;-0.2891;0.6835
349;-1.8379;3.3121;0.0000;-0.2805;0.6574
350;-1.5269;3.3120;0.0000;-0.2718;0.6399
351;-1.2158;3.3118;0.0000;-0.2505;0.6288
352;-0.9045;3.3117;0.0000;-0.2260;0.6296
353;-0.5933;3.3114;0.0000;-0.2357;0.6332
354;-0.2821;3.3112;0.0000;-0.2418;0.6247
355;0.0291;3.3111;0.0000;-0.2252;0.6215
356;0.3404;3.3110;0.0000;-0.2381;0.6331
357;0.6515;3.3109;0.0000;-0.2583;0.6307
358;0.9626;3.3108;0.0000;-0.2426;0.6169
359;1.2738;3.3108;0.0000;-0.2325;0.6246
360;1.5850;3.3107;0.0000;-0.2547;0.6551
361;1.8961;3.3105;0.0000;-0.2291;0.6722
362;2.2070;3.3101;0.0000;-0.2235;0.6484
363;2.5166;3.3095;0.0000;-0.2225;0.6154
364;2.8224;3.3084;0.0000;-0.2087;0.5874
365;3.1189;3.3075;0.0000;-0.1986;0.5526
366;3.3969;3.3121;0.0000;-0.1933;0.5199
367;3.6354;3.3170;0.0000;-0.2056;0.5061
368;-4.4164;3.0454;0.0000;-0.2467;0.6049
369;-4.1356;3.0411;0.0000;-0.2764;0.6314
370;-3.8428;3.0402;0.0000;-0.2877;0.6568
371;-3.5412;3.0404;0.0000;-0.2880;0.6443
372;-3.2346;3.0405;0.0000;-0.2840;0.6283
373;-2.9255;3.0404;0.0000;-0.2521;0.6552
374;-2.6152;3.0402;0.0000;-0.2626;0.6862
375;-2.3044;3.0402;0.0000;-0.2871;0.6767
376;-1.9935;3.0401;0.0000;-0.2899;0.6667
377;-1.6825;3.0399;0.0000;-0.2786;0.6774
378;-1.3714;3.0399;0.0000;-0.2652;0.6742
379;-1.0603;3.0398;0.0000;-0.2528;0.6527
380;-0.7491;3.0396;0.0000;-0.2280;0.6291
381;-0.4379;3.0394;0.0000;-0.2353;0.6067
382;-0.1266;3.0393;0.0000;-0.2273;0.5926
383;0.1846;3.0391;0.0000;-0.2088;0.6017
384;0.4959;3.0390;0.0000;-0.2287;0.6099
385;0.8071;3.0390;0.0000;-0.2469;0.5865
386;1.1183;3.0389;0.0000;-0.2481;0.5852
387;1.4294;3.0388;0.0000;-0.2618;0.6220
388;1.7405;3.0385;0.0000;-0.2619;0.6390
389;2.0515;3.0383;0.0000;-0.2258;0.6159
390;2.3621;3.0380;0.0000;-0.2175;0.5673
391;2.6707;3.0374;0.0000;-0.2139;0.5215
392;2.9749;3.0369;0.0000;-0.1941;0.4966
393;3.2720;3.0371;0.0000;-0.1954;0.4865
394;3.5631;3.0388;0.0000;-0.2109;0.4927
395;-4.2952;2.7786;0.0000;-0.2508;0.4856
396;-3.9950;2.7693;0.0000;-0.2622;0.5032
397;-3.6939;2.7682;0.0000;-0.2812;0.5366
398;-3.3887;2.7686;0.0000;-0.2837;0.5619
399;-3.0805;2.7686;0.0000;-0.2626;0.5848
400;-2.7705;2.7684;0.0000;-0.2443;0.6038
401;-2.4599;2.7683;0.0000;-0.2585;0.6037
402;-2.1490;2.7682;0.0000;-0.2799;0.5870
403;-1.8380;2.7681;0.0000;-0.2814;0.5797
404;-1.5269;2.7679;0.0000;-0.2662;0.5945
405;-1.2159;2.7678;0.0000;-0.2688;0.5902
406;-0.9048;2.7679;0.0000;-0.2477;0.5561
407;-0.5935;2.7677;0.0000;-0.2351;0.5293
408;-0.2824;2.7676;0.0000;-0.2419;0.5247
409;0.0288;2.7675;0.0000;-0.2049;0.5395
410;0.3403;2.7673;0.0000;-0.2024;0.5590
411;0.6515;2.7672;0.0000;-0.2314;0.5714
412;0.9627;2.7673;0.0000;-0.2606;0.5722
413;1.2738;2.7671;0.0000;-0.2717;0.5566
414;1.5848;2.7668;0.0000;-0.2703;0.5333
415;1.8959;2.7666;0.0000;-0.2321;0.5098
416;2.2068;2.7665;0.0000;-0.1952;0.4802
417;2.5166;2.7664;0.0000;-0.2081;0.4422
418;2.8222;2.7662;0.0000;-0.2036;0.4278
419;3.1181;2.7662;0.0000;-0.1900;0.4398
420;3.3947;2.7629;0.0000;-0.2104;0.4660
421;3.6308;2.7579;0.0000;-0.2368;0.4788
422;-4.3893;2.5223;0.0000;-0.2546;0.4540
423;-4.1307;2.4995;0.0000;-0.2596;0.4578
424;-3.8421;2.4963;0.0000;-0.2646;0.4571
425;-3.5414;2.4966;0.0000;-0.2733;0.5013
426;-3.2350;2.4969;0.0000;-0.2643;0.5382
427;-2.9258;2.4968;0.0000;-0.2436;0.5238
428;-2.6154;2.4966;0.0000;-0.2363;0.5064
429;-2.3045;2.4966;0.0000;-0.2562;0.4998
430;-1.9936;2.4966;0.0000;-0.2700;0.4884
431;-1.6825;2.4964;0.0000;-0.2619;0.4851
432;-1.3714;2.4963;0.0000;-0.2433;0.4873
433;-1.0602;2.4964;0.0000;-0.2493;0.4901
434;-0.7490;2.4963;0.0000;-0.2494;0.4858
435;-0.4379;2.4962;0.0000;-0.2573;0.4812
436;-0.1267;2.4961;0.0000;-0.2357;0.5041
437;0.1846;2.4958;0.0000;-0.2039;0.5359
438;0.4958;2.4956;0.0000;-0.2219;0.5504
439;0.8070;2.4955;0.0000;-0.2487;0.5546
440;1.1182;2.4955;0.0000;-0.2667;0.5348
441;1.4292;2.4955;0.0000;-0.2612;0.4831
442;1.7404;2.4953;0.0000;-0.2371;0.4391
443;2.0515;2.4953;0.0000;-0.1922;0.4224
444;2.3621;2.4953;0.0000;-0.1936;0.4093
445;2.6702;2.4951;0.0000;-0.2109;0.4102
446;2.9725;2.4951;0.0000;-0.2046;0.4354
447;3.2654;2.4945;0.0000;-0.2171;0.4567
448;3.5548;2.4780;0.0000;-0.2486;0.4669
449;-4.3145;2.2359;0.0000;-0.2740;0.5629
450;-4.0035;2.2257;0.0000;-0.2617;0.5213
451;-3.6972;2.2250;0.0000;-0.2393;0.5120
452;-3.3899;2.2252;0.0000;-0.2453;0.5139
453;-3.0811;2.2253;0.0000;-0.2605;0.4891
454;-2.7710;2.2253;0.0000;-0.2403;0.4658
455;-2.4602;2.2252;0.0000;-0.2297;0.4709
456;-2.1492;2.2252;0.0000;-0.2469;0.4973
457;-1.8381;2.2251;0.0000;-0.2514;0.5134
458;-1.5269;2.2249;0.0000;-0.2401;0.5216
459;-1.2157;2.2249;0.0000;-0.2269;0.5419
460;-0.9045;2.2249;0.0000;-0.2387;0.5530
461;-0.5933;2.2248;0.0000;-0.2673;0.5591
462;-0.2823;2.2247;0.0000;-0.2731;0.5706
463;0.0288;2.2244;0.0000;-0.2303;0.5658
464;0.3402;2.2240;0.0000;-0.2080;0.5451
465;0.6514;2.2239;0.0000;-0.2360;0.5236
466;0.9625;2.2240;0.0000;-0.2600;0.5099
467;1.2737;2.2240;0.0000;-0.2424;0.5028
468;1.5849;2.2240;0.0000;-0.2259;0.4834
469;1.8961;2.2240;0.0000;-0.2061;0.4667
470;2.2070;2.2240;0.0000;-0.1868;0.4794
471;2.5164;2.2239;0.0000;-0.2111;0.5036
472;2.8205;2.2236;0.0000;-0.2172;0.5197
473;3.1122;2.2234;0.0000;-0.2261;0.5330
474;3.3814;2.2229;0.0000;-0.2486;0.5319
475;3.6204;2.1868;0.0000;-0.2667;0.5246
476;-4.3990;1.9589;0.0000;-0.2725;0.6015
477;-4.1393;1.9545;0.0000;-0.2709;0.5837
478;-3.8463;1.9540;0.0000;-0.2423;0.5656
479;-3.5431;1.9538;0.0000;-0.2170;0.5342
480;-3.2356;1.9540;0.0000;-0.2441;0.5114
481;-2.9262;1.9540;0.0000;-0.2542;0.5249
482;-2.6157;1.9538;0.0000;-0.2313;0.5508
483;-2.3047;1.9537;0.0000;-0.2334;0.5664
484;-1.9937;1.9536;0.0000;-0.2385;0.5833
485;-1.6825;1.9533;0.0000;-0.2387;0.6018
486;-1.3713;1.9532;0.0000;-0.2364;0.6023
487;-1.0601;1.9531;0.0000;-0.2328;0.6124
488;-0.7489;1.9530;0.0000;-0.2411;0.6241
489;-0.4378;1.9529;0.0000;-0.2696;0.6268
490;-0.1267;1.9527;0.0000;-0.2662;0.6064
491;0.1844;1.9525;0.0000;-0.2205;0.5482
492;0.4957;1.9524;0.0000;-0.2043;0.4979
493;0.8070;1.9524;0.0000;-0.2369;0.4919
494;1.1182;1.9525;0.0000;-0.2438;0.5198
495;1.4294;1.9525;0.0000;-0.2060;0.5376
496;1.7407;1.9525;0.0000;-0.1971;0.5498
497;2.0519;1.9525;0.0000;-0.1998;0.5712
498;2.3622;1.9522;0.0000;-0.2189;0.5990
499;2.6696;1.9516;0.0000;-0.2370;0.6332
500;2.9691;1.9506;0.0000;-0.2336;0.6306
501;3.2543;1.9500;0.0000;-0.2383;0.6033
502;3.5247;1.9539;0.0000;-0.2625;0.5881
503;-4.3150;1.6741;0.0000;-0.2580;0.5595
504;-4.0038;1.6824;0.0000;-0.2533;0.5713
505;-3.6975;1.6826;0.0000;-0.2357;0.5647
506;-3.3903;1.6825;0.0000;-0.2406;0.5559
507;-3.0813;1.6824;0.0000;-0.2490;0.5569
508;-2.7712;1.6822;0.0000;-0.2435;0.5740
509;-2.4605;1.6819;0.0000;-0.2391;0.5997
510;-2.1494;1.6819;0.0000;-0.2299;0.6082
511;-1.8382;1.6816;0.0000;-0.2189;0.5933
512;-1.5270;1.6814;0.0000;-0.2352;0.5815
513;-1.2159;1.6813;0.0000;-0.2570;0.5901
514;-0.9048;1.6812;0.0000;-0.2419;0.6069
515;-0.5935;1.6811;0.0000;-0.2275;0.6053
516;-0.2823;1.6810;0.0000;-0.2435;0.5776
517;0.0289;1.6809;0.0000;-0.2355;0.5336
518;0.3401;1.6810;0.0000;-0.2056;0.4891
519;0.6514;1.6810;0.0000;-0.2152;0.4754
520;0.9626;1.6809;0.0000;-0.2356;0.4984
521;1.2739;1.6808;0.0000;-0.2045;0.5222
522;1.5852;1.6808;0.0000;-0.1864;0.5328
523;1.8965;1.6807;0.0000;-0.2076;0.5612
524;2.2073;1.6805;0.0000;-0.2244;0.5980
525;2.5165;1.6800;0.0000;-0.2439;0.6209
526;2.8208;1.6785;0.0000;-0.2447;0.6273
527;3.1134;1.6769;0.0000;-0.2299;0.6110
528;3.3859;1.6791;0.0000;-0.2369;0.5795
529;3.6274;1.7279;0.0000;-0.2637;0.5627
530;-4.3886;1.3844;0.0000;-0.2515;0.5593
531;-4.1310;1.4080;0.0000;-0.2450;0.5632
532;-3.8427;1.4110;0.0000;-0.2437;0.5526
533;-3.5420;1.4109;0.0000;-0.2526;0.5538
534;-3.2356;1.4108;0.0000;-0.2558;0.5538
535;-2.9264;1.4107;0.0000;-0.2406;0.5417
536;-2.6160;1.4104;0.0000;-0.2510;0.5449
537;-2.3052;1.4101;0.0000;-0.2367;0.5623
538;-1.9940;1.4100;0.0000;-0.2107;0.5603
539;-1.6828;1.4099;0.0000;-0.2203;0.5310
540;-1.3716;1.4097;0.0000;-0.2475;0.5150
541;-1.0605;1.4096;0.0000;-0.2652;0.5188
542;-0.7494;1.4094;0.0000;-0.2165;0.5115
543;-0.4380;1.4094;0.0000;-0.2001;0.4880
544;-0.1267;1.4094;0.0000;-0.2150;0.4686
545;0.1846;1.4095;0.0000;-0.2059;0.4580
546;0.4959;1.4096;0.0000;-0.2100;0.4522
547;0.8071;1.4095;0.0000;-0.2313;0.4489
548;1.1184;1.4094;0.0000;-0.2055;0.4522
549;1.4297;1.4093;0.0000;-0.1951;0.4683
550;1.7410;1.4093;0.0000;-0.2188;0.4697
551;2.0521;1.4090;0.0000;-0.2182;0.4691
552;2.3625;1.4085;0.0000;-0.2302;0.4829
553;2.6707;1.4074;0.0000;-0.2463;0.4792
554;2.9734;1.4055;0.0000;-0.2327;0.4871
555;3.2678;1.4063;0.0000;-0.2342;0.4938
556;3.5590;1.4248;0.0000;-0.2552;0.4898
557;-4.2954;1.1272;0.0000;-0.2458;0.5423
558;-3.9958;1.1372;0.0000;-0.2358;0.5295
559;-3.6948;1.1388;0.0000;-0.2294;0.5086
560;-3.3895;1.1391;0.0000;-0.2517;0.4819
561;-3.0813;1.1391;0.0000;-0.2528;0.4810
562;-2.7714;1.1390;0.0000;-0.2553;0.4853
563;-2.4608;1.1386;0.0000;-0.2468;0.4877
564;-2.1497;1.1385;0.0000;-0.2082;0.5050
565;-1.8385;1.1383;0.0000;-0.2077;0.4998
566;-1.5273;1.1383;0.0000;-0.2260;0.4720
567;-1.2160;1.1383;0.0000;-0.2473;0.4417
568;-0.9049;1.1381;0.0000;-0.2255;0.4041
569;-0.5936;1.1381;0.0000;-0.1915;0.3758
570;-0.2822;1.1381;0.0000;-0.2028;0.3690
571;0.0290;1.1381;0.0000;-0.2144;0.3820
572;0.3403;1.1382;0.0000;-0.2017;0.4038
573;0.6516;1.1383;0.0000;-0.2181;0.4173
574;0.9628;1.1382;0.0000;-0.2182;0.4135
575;1.2742;1.1380;0.0000;-0.1981;0.4168
576;1.5855;1.1380;0.0000;-0.2200;0.4302
577;1.8966;1.1379;0.0000;-0.2266;0.4151
578;2.2075;1.1376;0.0000;-0.2140;0.3807
579;2.5173;1.1368;0.0000;-0.2275;0.3658
580;2.8234;1.1349;0.0000;-0.2288;0.3807
581;3.1198;1.1326;0.0000;-0.2246;0.4043
582;3.3953;1.1387;0.0000;-0.2590;0.4269
583;3.6329;1.1505;0.0000;-0.2689;0.4365
584;-4.4170;0.8585;0.0000;-0.2534;0.4780
585;-4.1364;0.8651;0.0000;-0.2451;0.4768
586;-3.8438;0.8667;0.0000;-0.2314;0.4858
587;-3.5423;0.8674;0.0000;-0.2296;0.4819
588;-3.2357;0.8678;0.0000;-0.2521;0.4666
589;-2.9266;0.8677;0.0000;-0.2445;0.4565
590;-2.6163;0.8674;0.0000;-0.2538;0.4473
591;-2.3055;0.8671;0.0000;-0.2258;0.4395
592;-1.9943;0.8669;0.0000;-0.1947;0.4337
593;-1.6830;0.8670;0.0000;-0.2134;0.4186
594;-1.3717;0.8669;0.0000;-0.2190;0.3987
595;-1.0605;0.8670;0.0000;-0.2073;0.3618
596;-0.7491;0.8671;0.0000;-0.1869;0.3334
597;-0.4378;0.8671;0.0000;-0.1965;0.3241
598;-0.1265;0.8671;0.0000;-0.2170;0.3298
599;0.1847;0.8671;0.0000;-0.2171;0.3535
600;0.4960;0.8670;0.0000;-0.2024;0.3795
601;0.8073;0.8670;0.0000;-0.2277;0.4041
602;1.1185;0.8669;0.0000;-0.2147;0.4118
603;1.4298;0.8667;0.0000;-0.1940;0.4057
604;1.7411;0.8666;0.0000;-0.2126;0.3910
605;2.0523;0.8665;0.0000;-0.2208;0.3639
606;2.3631;0.8661;0.0000;-0.2190;0.3492
607;2.6728;0.8645;0.0000;-0.2169;0.3593
608;2.9797;0.8609;0.0000;-0.2162;0.3807
609;3.2799;0.8581;0.0000;-0.2466;0.4066
610;3.5684;0.8670;0.0000;-0.2897;0.4162
611;-4.2962;0.5990;0.0000;-0.2583;0.4492
612;-3.9963;0.5952;0.0000;-0.2436;0.4840
613;-3.6952;0.5955;0.0000;-0.2206;0.5163
614;-3.3899;0.5960;0.0000;-0.2479;0.5226
615;-3.0817;0.5963;0.0000;-0.2443;0.4944
616;-2.7717;0.5962;0.0000;-0.2281;0.4484
617;-2.4610;0.5959;0.0000;-0.2280;0.3955
618;-2.1499;0.5958;0.0000;-0.1917;0.3545
619;-1.8386;0.5958;0.0000;-0.2016;0.3505
620;-1.5274;0.5958;0.0000;-0.2261;0.3461
621;-1.2162;0.5959;0.0000;-0.2009;0.3337
622;-0.9048;0.5960;0.0000;-0.1755;0.3374
623;-0.5934;0.5960;0.0000;-0.1825;0.3400
624;-0.2820;0.5961;0.0000;-0.2016;0.3552
625;0.0293;0.5960;0.0000;-0.2293;0.3795
626;0.3404;0.5959;0.0000;-0.2162;0.3827
627;0.6517;0.5958;0.0000;-0.2208;0.3842
628;0.9629;0.5957;0.0000;-0.2264;0.4025
629;1.2742;0.5955;0.0000;-0.1855;0.3988
630;1.5857;0.5955;0.0000;-0.1819;0.3771
631;1.8970;0.5955;0.0000;-0.2112;0.3725
632;2.2082;0.5954;0.0000;-0.2222;0.3765
633;2.5196;0.5947;0.0000;-0.2140;0.3741
634;2.8318;0.5925;0.0000;-0.2185;0.3708
635;3.1473;0.5897;0.0000;-0.2308;0.3749
636;3.4726;0.5977;0.0000;-0.2783;0.3696
637;-4.3917;0.3388;0.0000;-0.2712;0.4780
638;-4.1326;0.3233;0.0000;-0.2489;0.4738
639;-3.8438;0.3230;0.0000;-0.2294;0.4822
640;-3.5427;0.3239;0.0000;-0.2352;0.4755
641;-3.2361;0.3246;0.0000;-0.2609;0.4365
642;-2.9270;0.3248;0.0000;-0.2299;0.3904
643;-2.6165;0.3249;0.0000;-0.2157;0.3514
644;-2.3055;0.3248;0.0000;-0.1826;0.3311
645;-1.9942;0.3248;0.0000;-0.1697;0.3134
646;-1.6829;0.3247;0.0000;-0.2071;0.3024
647;-1.3717;0.3248;0.0000;-0.2011;0.3171
648;-1.0603;0.3249;0.0000;-0.1833;0.3402
649;-0.7489;0.3249;0.0000;-0.1936;0.3610
650;-0.4376;0.3250;0.0000;-0.2057;0.3794
651;-0.1264;0.3248;0.0000;-0.2160;0.3908
652;0.1849;0.3247;0.0000;-0.2107;0.4076
653;0.4962;0.3247;0.0000;-0.2095;0.4129
654;0.8075;0.3246;0.0000;-0.2262;0.4031
655;1.1187;0.3244;0.0000;-0.2094;0.3994
656;1.4300;0.3243;0.0000;-0.1884;0.3959
657;1.7414;0.3243;0.0000;-0.1843;0.4048
658;2.0528;0.3242;0.0000;-0.2061;0.4280
659;2.3642;0.3240;0.0000;-0.2182;0.4424
660;2.6763;0.3233;0.0000;-0.2281;0.4371
661;2.9898;0.3218;0.0000;-0.2351;0.4202
662;3.3044;0.3223;0.0000;-0.2409;0.4038
663;3.6057;0.3423;0.0000;-0.2690;0.4003
664;-4.3169;0.0560;0.0000;-0.2448;0.4503
665;-4.0050;0.0518;0.0000;-0.2429;0.4255
666;-3.6984;0.0525;0.0000;-0.2346;0.3795
667;-3.3911;0.0532;0.0000;-0.2534;0.3667
668;-3.0822;0.0538;0.0000;-0.2436;0.3698
669;-2.7720;0.0539;0.0000;-0.2208;0.3564
670;-2.4612;0.0538;0.0000;-0.2042;0.3341
671;-2.1499;0.0537;0.0000;-0.1699;0.3053
672;-1.8385;0.0538;0.0000;-0.1678;0.2869
673;-1.5272;0.0538;0.0000;-0.1872;0.2942
674;-1.2158;0.0538;0.0000;-0.1800;0.3273
675;-0.9045;0.0538;0.0000;-0.1963;0.3650
676;-0.5932;0.0537;0.0000;-0.2113;0.3844
677;-0.2820;0.0537;0.0000;-0.2100;0.3697
678;0.0293;0.0536;0.0000;-0.2011;0.3538
679;0.3407;0.0534;0.0000;-0.1960;0.3811
680;0.6520;0.0534;0.0000;-0.2227;0.4256
681;0.9632;0.0532;0.0000;-0.2244;0.4479
682;1.2744;0.0531;0.0000;-0.2101;0.4570
683;1.5858;0.0531;0.0000;-0.1843;0.4585
684;1.8972;0.0530;0.0000;-0.1958;0.4615
685;2.2087;0.0529;0.0000;-0.2279;0.4780
686;2.5207;0.0526;0.0000;-0.2255;0.4937
687;2.8349;0.0523;0.0000;-0.2306;0.4938
688;3.1541;0.0522;0.0000;-0.2251;0.4792
689;3.4837;0.0511;0.0000;-0.2420;0.4784
690;-4.3959;-0.2225;0.0000;-0.2187;0.3537
691;-4.1386;-0.2203;0.0000;-0.2347;0.3623
692;-3.8463;-0.2181;0.0000;-0.2351;0.3391
693;-3.5436;-0.2177;0.0000;-0.2363;0.3293
694;-3.2365;-0.2175;0.0000;-0.2348;0.3784
695;-2.9270;-0.2174;0.0000;-0.2245;0.4076
696;-2.6165;-0.2173;0.0000;-0.2334;0.3778
697;-2.3056;-0.2172;0.0000;-0.2184;0.3354
698;-1.9944;-0.2171;0.0000;-0.1718;0.3246
699;-1.6829;-0.2171;0.0000;-0.1620;0.3356
700;-1.3716;-0.2171;0.0000;-0.1693;0.3416
701;-1.0601;-0.2173;0.0000;-0.1726;0.3547
702;-0.7488;-0.2174;0.0000;-0.1961;0.3607
703;-0.4374;-0.2174;0.0000;-0.1957;0.3575
704;-0.1261;-0.2174;0.0000;-0.2074;0.3599
705;0.1851;-0.2176;0.0000;-0.2120;0.3735
706;0.4964;-0.2178;0.0000;-0.2181;0.4213
707;0.8077;-0.2181;0.0000;-0.2105;0.4767
708;1.1190;-0.2184;0.0000;-0.1999;0.4867
709;1.4303;-0.2184;0.0000;-0.2005;0.4844
710;1.7416;-0.2184;0.0000;-0.2121;0.5008
711;2.0529;-0.2185;0.0000;-0.2434;0.5106
712;2.3644;-0.2186;0.0000;-0.2256;0.5229
713;2.6769;-0.2186;0.0000;-0.2133;0.5379
714;2.9906;-0.2184;0.0000;-0.2270;0.5250
715;3.3037;-0.2186;0.0000;-0.2347;0.5102
716;3.6048;-0.2425;0.0000;-0.2380;0.4996
717;-4.3128;-0.5034;0.0000;-0.2367;0.3240
718;-4.0023;-0.4887;0.0000;-0.2241;0.3361
719;-3.6973;-0.4882;0.0000;-0.2170;0.3641
720;-3.3906;-0.4885;0.0000;-0.2064;0.3899
721;-3.0818;-0.4886;0.0000;-0.2094;0.4021
722;-2.7717;-0.4885;0.0000;-0.2413;0.4083
723;-2.4610;-0.4884;0.0000;-0.2522;0.4059
724;-2.1500;-0.4883;0.0000;-0.2075;0.4068
725;-1.8387;-0.4883;0.0000;-0.1636;0.4180
726;-1.5273;-0.4883;0.0000;-0.1657;0.4242
727;-1.2159;-0.4884;0.0000;-0.1634;0.4004
728;-0.9044;-0.4885;0.0000;-0.1743;0.3646
729;-0.5931;-0.4885;0.0000;-0.1863;0.3577
730;-0.2817;-0.4885;0.0000;-0.1854;0.3865
731;0.0297;-0.4887;0.0000;-0.2059;0.4253
732;0.3409;-0.4890;0.0000;-0.2396;0.4517
733;0.6520;-0.4894;0.0000;-0.2301;0.4495
734;0.9633;-0.4897;0.0000;-0.1870;0.4393
735;1.2747;-0.4898;0.0000;-0.1830;0.4528
736;1.5861;-0.4899;0.0000;-0.2082;0.4921
737;1.8974;-0.4900;0.0000;-0.2453;0.5190
738;2.2087;-0.4901;0.0000;-0.2314;0.5216
739;2.5208;-0.4902;0.0000;-0.1991;0.5259
740;2.8341;-0.4901;0.0000;-0.2276;0.5201
741;3.1499;-0.4906;0.0000;-0.2482;0.4972
742;3.4708;-0.4942;0.0000;-0.2357;0.4870
743;-4.3866;-0.7940;0.0000;-0.2574;0.3631
744;-4.1269;-0.7600;0.0000;-0.2203;0.3748
745;-3.8408;-0.7591;0.0000;-0.2089;0.4070
746;-3.5414;-0.7596;0.0000;-0.1958;0.4256
747;-3.2355;-0.7598;0.0000;-0.1890;0.4270
748;-2.9264;-0.7598;0.0000;-0.2177;0.4411
749;-2.6162;-0.7598;0.0000;-0.2577;0.4640
750;-2.3055;-0.7596;0.0000;-0.2397;0.4702
751;-1.9943;-0.7596;0.0000;-0.1919;0.4659
752;-1.6830;-0.7597;0.0000;-0.1757;0.4585
753;-1.3716;-0.7597;0.0000;-0.1698;0.4493
754;-1.0601;-0.7596;0.0000;-0.1500;0.4397
755;-0.7486;-0.7596;0.0000;-0.1768;0.4368
756;-0.4373;-0.7597;0.0000;-0.1989;0.4421
757;-0.1260;-0.7599;0.0000;-0.1911;0.4591
758;0.1853;-0.7602;0.0000;-0.2186;0.4793
759;0.4965;-0.7606;0.0000;-0.2243;0.4696
760;0.8078;-0.7608;0.0000;-0.1945;0.4290
761;1.1192;-0.7610;0.0000;-0.1897;0.4207
762;1.4305;-0.7613;0.0000;-0.2131;0.4511
763;1.7417;-0.7615;0.0000;-0.2286;0.4762
764;2.0530;-0.7616;0.0000;-0.2227;0.4962
765;2.3646;-0.7617;0.0000;-0.1766;0.4866
766;2.6767;-0.7618;0.0000;-0.1997;0.4547
767;2.9883;-0.7624;0.0000;-0.2646;0.4524
768;3.2961;-0.7666;0.0000;-0.2616;0.4702
769;3.5824;-0.7501;0.0000;-0.2449;0.4827
770;-4.2820;-1.0308;0.0000;-0.2423;0.4572
771;-3.9895;-1.0316;0.0000;-0.2131;0.4595
772;-3.6925;-1.0316;0.0000;-0.1981;0.4609
773;-3.3888;-1.0314;0.0000;-0.1865;0.4561
774;-3.0810;-1.0313;0.0000;-0.1980;0.4688
775;-2.7713;-1.0313;0.0000;-0.2214;0.5014
776;-2.4606;-1.0312;0.0000;-0.2327;0.5287
777;-2.1496;-1.0311;0.0000;-0.2092;0.5255
778;-1.8384;-1.0311;0.0000;-0.1969;0.5076
779;-1.5271;-1.0310;0.0000;-0.1954;0.5161
780;-1.2158;-1.0310;0.0000;-0.1703;0.5441
781;-0.9043;-1.0311;0.0000;-0.1620;0.5526
782;-0.5930;-1.0311;0.0000;-0.1976;0.5427
783;-0.2817;-1.0312;0.0000;-0.2020;0.5226
784;0.0297;-1.0315;0.0000;-0.2042;0.5053
785;0.3409;-1.0319;0.0000;-0.2130;0.5001
786;0.6523;-1.0321;0.0000;-0.1913;0.4847
787;0.9636;-1.0322;0.0000;-0.1928;0.4564
788;1.2749;-1.0324;0.0000;-0.2043;0.4461
789;1.5862;-1.0327;0.0000;-0.2059;0.4508
790;1.8976;-1.0329;0.0000;-0.2033;0.4481
791;2.2092;-1.0331;0.0000;-0.1883;0.4423
792;2.5215;-1.0330;0.0000;-0.1804;0.4369
793;2.8357;-1.0329;0.0000;-0.2420;0.4468
794;3.1556;-1.0339;0.0000;-0.2777;0.4794
795;3.4936;-1.0380;0.0000;-0.2743;0.5148
796;-4.3854;-1.2660;0.0000;-0.2389;0.5213
797;-4.1256;-1.3027;0.0000;-0.2213;0.5082
798;-3.8398;-1.3045;0.0000;-0.2084;0.4947
799;-3.5409;-1.3036;0.0000;-0.1818;0.4844
800;-3.2351;-1.3030;0.0000;-0.1856;0.4776
801;-2.9262;-1.3028;0.0000;-0.2028;0.4928
802;-2.6159;-1.3029;0.0000;-0.2125;0.5105
803;-2.3050;-1.3029;0.0000;-0.2091;0.5241
804;-1.9939;-1.3027;0.0000;-0.1976;0.5456
805;-1.6826;-1.3027;0.0000;-0.1989;0.5756
806;-1.3713;-1.3028;0.0000;-0.2117;0.5983
807;-1.0600;-1.3029;0.0000;-0.1813;0.5960
808;-0.7486;-1.3029;0.0000;-0.1780;0.5899
809;-0.4372;-1.3029;0.0000;-0.2040;0.5911
810;-0.1260;-1.3029;0.0000;-0.2145;0.5770
811;0.1853;-1.3033;0.0000;-0.2168;0.5429
812;0.4966;-1.3036;0.0000;-0.1993;0.5117
813;0.8079;-1.3036;0.0000;-0.1896;0.4978
814;1.1193;-1.3037;0.0000;-0.1790;0.4853
815;1.4307;-1.3040;0.0000;-0.1800;0.4625
816;1.7421;-1.3042;0.0000;-0.1869;0.4413
817;2.0535;-1.3043;0.0000;-0.2014;0.4290
818;2.3650;-1.3043;0.0000;-0.1937;0.4378
819;2.6768;-1.3041;0.0000;-0.2101;0.4643
820;2.9880;-1.3038;0.0000;-0.2531;0.4890
821;3.2951;-1.3039;0.0000;-0.2854;0.5270
822;3.5784;-1.3265;0.0000;-0.3062;0.5559
823;-4.3122;-1.5573;0.0000;-0.2217;0.5095
824;-4.0015;-1.5749;0.0000;-0.2096;0.4879
825;-3.6965;-1.5756;0.0000;-0.1898;0.4861
826;-3.3900;-1.5748;0.0000;-0.1792;0.4987
827;-3.0813;-1.5744;0.0000;-0.1837;0.4870
828;-2.7712;-1.5744;0.0000;-0.1879;0.4569
829;-2.4603;-1.5743;0.0000;-0.1964;0.4583
830;-2.1492;-1.5743;0.0000;-0.2045;0.5014
831;-1.8380;-1.5744;0.0000;-0.2084;0.5308
832;-1.5268;-1.5745;0.0000;-0.2188;0.5259
833;-1.2156;-1.5746;0.0000;-0.2044;0.5323
834;-0.9042;-1.5746;0.0000;-0.1839;0.5621
835;-0.5928;-1.5746;0.0000;-0.1951;0.5786
836;-0.2816;-1.5747;0.0000;-0.2211;0.5924
837;0.0297;-1.5749;0.0000;-0.2252;0.5886
838;0.3409;-1.5750;0.0000;-0.2069;0.5494
839;0.6522;-1.5752;0.0000;-0.1864;0.5271
840;0.9636;-1.5752;0.0000;-0.1656;0.5172
841;1.2751;-1.5753;0.0000;-0.1603;0.4860
842;1.5865;-1.5754;0.0000;-0.1748;0.4554
843;1.8980;-1.5756;0.0000;-0.1942;0.4442
844;2.2094;-1.5757;0.0000;-0.2148;0.4503
845;2.5211;-1.5757;0.0000;-0.2156;0.4670
846;2.8336;-1.5756;0.0000;-0.2234;0.4825
847;3.1478;-1.5757;0.0000;-0.2653;0.5026
848;3.4683;-1.5816;0.0000;-0.3098;0.5134
849;-4.3955;-1.8384;0.0000;-0.2293;0.5298
850;-4.1384;-1.8422;0.0000;-0.2059;0.5175
851;-3.8460;-1.8462;0.0000;-0.1846;0.4963
852;-3.5432;-1.8464;0.0000;-0.1756;0.5009
853;-3.2359;-1.8460;0.0000;-0.1790;0.5026
854;-2.9263;-1.8457;0.0000;-0.1774;0.4823
855;-2.6157;-1.8456;0.0000;-0.1917;0.4882
856;-2.3047;-1.8457;0.0000;-0.1971;0.5291
857;-1.9935;-1.8458;0.0000;-0.2126;0.5430
858;-1.6823;-1.8459;0.0000;-0.2205;0.5145
859;-1.3711;-1.8459;0.0000;-0.1981;0.5088
860;-1.0596;-1.8462;0.0000;-0.1905;0.5374
861;-0.7484;-1.8463;0.0000;-0.2204;0.5537
862;-0.4372;-1.8463;0.0000;-0.2136;0.5643
863;-0.1258;-1.8465;0.0000;-0.2116;0.5702
864;0.1854;-1.8466;0.0000;-0.2120;0.5503
865;0.4967;-1.8467;0.0000;-0.1958;0.5238
866;0.8081;-1.8468;0.0000;-0.1661;0.5139
867;1.1196;-1.8468;0.0000;-0.1477;0.4964
868;1.4311;-1.8468;0.0000;-0.1716;0.4746
869;1.7424;-1.8469;0.0000;-0.1983;0.4606
870;2.0537;-1.8470;0.0000;-0.2168;0.4431
871;2.3652;-1.8471;0.0000;-0.2191;0.4429
872;2.6768;-1.8472;0.0000;-0.2229;0.4687
873;2.9880;-1.8470;0.0000;-0.2476;0.4987
874;3.2971;-1.8458;0.0000;-0.2902;0.4980
875;3.6024;-1.8408;0.0000;-0.2943;0.4927
876;-4.3160;-2.1178;0.0000;-0.2285;0.5347
877;-4.0049;-2.1158;0.0000;-0.1678;0.5205
878;-3.6981;-2.1172;0.0000;-0.1540;0.5086
879;-3.3905;-2.1173;0.0000;-0.1816;0.4922
880;-3.0814;-2.1172;0.0000;-0.1908;0.5028
881;-2.7711;-2.1172;0.0000;-0.1981;0.5463
882;-2.4603;-2.1173;0.0000;-0.1998;0.5777
883;-2.1490;-2.1175;0.0000;-0.1869;0.5810
884;-1.8378;-2.1175;0.0000;-0.2095;0.5703
885;-1.5266;-2.1175;0.0000;-0.2143;0.5591
886;-1.2153;-2.1177;0.0000;-0.1848;0.5484
887;-0.9039;-2.1179;0.0000;-0.2123;0.5466
888;-0.5927;-2.1179;0.0000;-0.2389;0.5629
889;-0.2815;-2.1181;0.0000;-0.2174;0.5630
890;0.0298;-2.1182;0.0000;-0.2010;0.5409
891;0.3411;-2.1182;0.0000;-0.1909;0.5148
892;0.6525;-2.1182;0.0000;-0.1822;0.4904
893;0.9639;-2.1183;0.0000;-0.1709;0.4664
894;1.2753;-2.1182;0.0000;-0.1676;0.4441
895;1.5867;-2.1182;0.0000;-0.1955;0.4347
896;1.8980;-2.1183;0.0000;-0.2075;0.4377
897;2.2094;-2.1184;0.0000;-0.2212;0.4339
898;2.5211;-2.1186;0.0000;-0.2195;0.4301
899;2.8333;-2.1187;0.0000;-0.2168;0.4466
900;3.1469;-2.1174;0.0000;-0.2661;0.4641
901;3.4664;-2.1059;0.0000;-0.2830;0.4682
902;-4.3901;-2.4002;0.0000;-0.2053;0.4608
903;-4.1318;-2.3872;0.0000;-0.1616;0.4767
904;-3.8434;-2.3878;0.0000;-0.1578;0.4939
905;-3.5422;-2.3885;0.0000;-0.1892;0.4977
906;-3.2355;-2.3886;0.0000;-0.1966;0.4982
907;-2.9261;-2.3887;0.0000;-0.2001;0.4984
908;-2.6156;-2.3890;0.0000;-0.2162;0.5000
909;-2.3047;-2.3891;0.0000;-0.2055;0.5099
910;-1.9934;-2.3892;0.0000;-0.1861;0.5167
911;-1.6821;-2.3892;0.0000;-0.2048;0.5334
912;-1.3708;-2.3892;0.0000;-0.2067;0.5399
913;-1.0595;-2.3894;0.0000;-0.1908;0.5176
914;-0.7482;-2.3896;0.0000;-0.2178;0.5202
915;-0.4370;-2.3897;0.0000;-0.2350;0.5379
916;-0.1258;-2.3898;0.0000;-0.2074;0.5256
917;0.1855;-2.3898;0.0000;-0.1808;0.5020
918;0.4970;-2.3897;0.0000;-0.1770;0.4977
919;0.8084;-2.3897;0.0000;-0.1929;0.4847
920;1.1196;-2.3895;0.0000;-0.1992;0.4643
921;1.4310;-2.3894;0.0000;-0.1990;0.4557
922;1.7423;-2.3896;0.0000;-0.2037;0.4374
923;2.0537;-2.3897;0.0000;-0.2108;0.4253
924;2.3651;-2.3898;0.0000;-0.2231;0.4186
925;2.6765;-2.3902;0.0000;-0.1998;0.4134
926;2.9871;-2.3907;0.0000;-0.2238;0.4151
927;3.2917;-2.3869;0.0000;-0.2894;0.4112
928;3.5733;-2.3570;0.0000;-0.2778;0.4054
929;-4.2953;-2.6616;0.0000;-0.1646;0.4158
930;-3.9957;-2.6599;0.0000;-0.1586;0.4426
931;-3.6947;-2.6601;0.0000;-0.2006;0.4711
932;-3.3894;-2.6602;0.0000;-0.1944;0.4812
933;-3.0808;-2.6601;0.0000;-0.1923;0.4672
934;-2.7708;-2.6601;0.0000;-0.2198;0.4234
935;-2.4601;-2.6603;0.0000;-0.2308;0.3982
936;-2.1491;-2.6606;0.0000;-0.2013;0.4141
937;-1.8378;-2.6606;0.0000;-0.1902;0.4441
938;-1.5265;-2.6607;0.0000;-0.2010;0.4685
939;-1.2152;-2.6609;0.0000;-0.1988;0.4793
940;-0.9038;-2.6609;0.0000;-0.1886;0.4868
941;-0.5925;-2.6611;0.0000;-0.2082;0.4960
942;-0.2813;-2.6613;0.0000;-0.2104;0.4955
943;0.0301;-2.6613;0.0000;-0.1942;0.4839
944;0.3414;-2.6612;0.0000;-0.1919;0.4719
945;0.6527;-2.6612;0.0000;-0.1934;0.4701
946;0.9641;-2.6611;0.0000;-0.1976;0.4865
947;1.2754;-2.6610;0.0000;-0.2052;0.4988
948;1.5866;-2.6610;0.0000;-0.2260;0.4899
949;1.8979;-2.6609;0.0000;-0.2261;0.4702
950;2.2094;-2.6610;0.0000;-0.2268;0.4489
951;2.5215;-2.6612;0.0000;-0.2038;0.4251
952;2.8357;-2.6618;0.0000;-0.1906;0.4020
953;3.1554;-2.6613;0.0000;-0.2499;0.3865
954;3.4886;-2.6484;0.0000;-0.2622;0.3721
955;-4.4146;-2.9211;0.0000;-0.1752;0.4601
956;-4.1355;-2.9291;0.0000;-0.1617;0.4717
957;-3.8431;-2.9314;0.0000;-0.1909;0.4925
958;-3.5418;-2.9317;0.0000;-0.1996;0.4897
959;-3.2351;-2.9315;0.0000;-0.1705;0.4761
960;-2.9258;-2.9314;0.0000;-0.2012;0.4637
961;-2.6155;-2.9314;0.0000;-0.2340;0.4332
962;-2.3046;-2.9316;0.0000;-0.2304;0.4141
963;-1.9935;-2.9319;0.0000;-0.1910;0.4287
964;-1.6821;-2.9320;0.0000;-0.1797;0.4484
965;-1.3707;-2.9321;0.0000;-0.2006;0.4605
966;-1.0595;-2.9323;0.0000;-0.1988;0.4936
967;-0.7481;-2.9325;0.0000;-0.1921;0.5130
968;-0.4368;-2.9327;0.0000;-0.2023;0.4871
969;-0.1255;-2.9327;0.0000;-0.2069;0.4684
970;0.1858;-2.9327;0.0000;-0.2016;0.4679
971;0.4971;-2.9325;0.0000;-0.2012;0.4579
972;0.8084;-2.9325;0.0000;-0.1994;0.4605
973;1.1197;-2.9325;0.0000;-0.1912;0.4732
974;1.4311;-2.9324;0.0000;-0.2054;0.4773
975;1.7424;-2.9325;0.0000;-0.2344;0.4744
976;2.0536;-2.9324;0.0000;-0.2477;0.4484
977;2.3651;-2.9324;0.0000;-0.2264;0.4200
978;2.6774;-2.9324;0.0000;-0.1784;0.3965
979;2.9907;-2.9323;0.0000;-0.2010;0.3619
980;3.3013;-2.9320;0.0000;-0.2455;0.3446
981;3.5816;-2.9322;0.0000;-0.2373;0.3463
982;-4.2937;-3.1905;0.0000;-0.1892;0.5241
983;-3.9948;-3.2017;0.0000;-0.1832;0.5385
984;-3.6942;-3.2034;0.0000;-0.1917;0.5227
985;-3.3891;-3.2032;0.0000;-0.1703;0.5077
986;-3.0807;-3.2030;0.0000;-0.1702;0.5197
987;-2.7707;-3.2029;0.0000;-0.2017;0.5401
988;-2.4600;-3.2029;0.0000;-0.2323;0.5251
989;-2.1490;-3.2031;0.0000;-0.2212;0.4807
990;-1.8378;-3.2033;0.0000;-0.1914;0.4748
991;-1.5264;-3.2035;0.0000;-0.1906;0.4855
992;-1.2151;-3.2037;0.0000;-0.1987;0.4883
993;-0.9038;-3.2040;0.0000;-0.2057;0.4931
994;-0.5925;-3.2042;0.0000;-0.2032;0.4791
995;-0.2812;-3.2041;0.0000;-0.1968;0.4570
996;0.0301;-3.2041;0.0000;-0.1952;0.4523
997;0.3415;-3.2040;0.0000;-0.1868;0.4710
998;0.6528;-3.2040;0.0000;-0.2074;0.4897
999;0.9641;-3.2039;0.0000;-0.2243;0.4897
1000;1.2753;-3.2038;0.0000;-0.2087;0.4769
1001;1.5866;-3.2039;0.0000;-0.2113;0.4542
1002;1.8979;-3.2037;0.0000;-0.2303;0.4244
1003;2.2094;-3.2035;0.0000;-0.2344;0.4069
1004;2.5216;-3.2034;0.0000;-0.2001;0.4008
1005;2.8358;-3.2030;0.0000;-0.1941;0.3786
1006;3.1553;-3.2031;0.0000;-0.2194;0.3575
1007;3.4879;-3.2161;0.0000;-0.2183;0.3508
1008;-4.3864;-3.4461;0.0000;-0.1965;0.5354
1009;-4.1293;-3.4711;0.0000;-0.1895;0.5272
1010;-3.8418;-3.4755;0.0000;-0.1870;0.4983
1011;-3.5415;-3.4752;0.0000;-0.1710;0.5003
1012;-3.2350;-3.4748;0.0000;-0.1626;0.5152
1013;-2.9258;-3.4747;0.0000;-0.1860;0.5337
1014;-2.6154;-3.4747;0.0000;-0.2035;0.5466
1015;-2.3044;-3.4746;0.0000;-0.2156;0.5159
1016;-1.9932;-3.4747;0.0000;-0.2237;0.4751
1017;-1.6821;-3.4749;0.0000;-0.2135;0.4519
1018;-1.3708;-3.4750;0.0000;-0.1842;0.4464
1019;-1.0594;-3.4753;0.0000;-0.1914;0.4454
1020;-0.7481;-3.4755;0.0000;-0.2226;0.4289
1021;-0.4369;-3.4755;0.0000;-0.1990;0.4256
1022;-0.1255;-3.4755;0.0000;-0.1849;0.4403
1023;0.1858;-3.4754;0.0000;-0.1812;0.4557
1024;0.4973;-3.4754;0.0000;-0.1841;0.4812
1025;0.8086;-3.4755;0.0000;-0.2315;0.5039
1026;1.1197;-3.4754;0.0000;-0.2384;0.5048
1027;1.4309;-3.4752;0.0000;-0.2089;0.4781
1028;1.7423;-3.4751;0.0000;-0.2223;0.4518
1029;2.0535;-3.4749;0.0000;-0.2277;0.4513
1030;2.3649;-3.4747;0.0000;-0.2010;0.4469
1031;2.6765;-3.4744;0.0000;-0.2024;0.4273
1032;2.9867;-3.4740;0.0000;-0.2277;0.4077
1033;3.2904;-3.4782;0.0000;-0.2193;0.3756
1034;3.5684;-3.5086;0.0000;-0.2015;0.3524
1035;-4.3115;-3.7338;0.0000;-0.1860;0.5161
1036;-4.0021;-3.7462;0.0000;-0.1856;0.4808
1037;-3.6968;-3.7471;0.0000;-0.1856;0.4785
1038;-3.3899;-3.7466;0.0000;-0.1697;0.4990
1039;-3.0809;-3.7464;0.0000;-0.1830;0.5081
1040;-2.7708;-3.7463;0.0000;-0.2113;0.4983
1041;-2.4600;-3.7462;0.0000;-0.2125;0.4989
1042;-2.1489;-3.7462;0.0000;-0.2148;0.4967
1043;-1.8377;-3.7462;0.0000;-0.2230;0.4642
1044;-1.5265;-3.7463;0.0000;-0.2036;0.4442
1045;-1.2151;-3.7465;0.0000;-0.1805;0.4317
1046;-0.9038;-3.7467;0.0000;-0.2094;0.4050
1047;-0.5925;-3.7468;0.0000;-0.2053;0.3980
1048;-0.2812;-3.7468;0.0000;-0.1783;0.4227
1049;0.0302;-3.7469;0.0000;-0.1937;0.4513
1050;0.3415;-3.7468;0.0000;-0.1903;0.4666
1051;0.6529;-3.7470;0.0000;-0.1946;0.4690
1052;0.9642;-3.7470;0.0000;-0.2281;0.4723
1053;1.2754;-3.7468;0.0000;-0.2217;0.4891
1054;1.5867;-3.7466;0.0000;-0.2227;0.4846
1055;1.8979;-3.7464;0.0000;-0.2297;0.4644
1056;2.2093;-3.7463;0.0000;-0.2084;0.4508
1057;2.5209;-3.7461;0.0000;-0.2050;0.4438
1058;2.8327;-3.7461;0.0000;-0.2316;0.4428
1059;3.1453;-3.7481;0.0000;-0.2213;0.4199
1060;3.4636;-3.7603;0.0000;-0.2077;0.3874
1061;-4.3975;-4.0093;0.0000;-0.1909;0.4495
1062;-4.1382;-4.0171;0.0000;-0.1910;0.4589
1063;-3.8456;-4.0186;0.0000;-0.1868;0.4609
1064;-3.5428;-4.0186;0.0000;-0.1718;0.4713
1065;-3.2354;-4.0184;0.0000;-0.1793;0.4910
1066;-2.9258;-4.0183;0.0000;-0.2104;0.4941
1067;-2.6154;-4.0182;0.0000;-0.2325;0.4911
1068;-2.3045;-4.0182;0.0000;-0.2104;0.4899
1069;-1.9933;-4.0180;0.0000;-0.1984;0.4952
1070;-1.6820;-4.0180;0.0000;-0.2238;0.5021
1071;-1.3708;-4.0181;0.0000;-0.2147;0.4786
1072;-1.0595;-4.0182;0.0000;-0.1940;0.4410
1073;-0.7482;-4.0182;0.0000;-0.1955;0.4254
1074;-0.4368;-4.0183;0.0000;-0.1818;0.4249
1075;-0.1254;-4.0184;0.0000;-0.1846;0.4320
1076;0.1859;-4.0184;0.0000;-0.2115;0.4504
1077;0.4971;-4.0184;0.0000;-0.1841;0.4568
1078;0.8086;-4.0184;0.0000;-0.1869;0.4563
1079;1.1199;-4.0184;0.0000;-0.2166;0.4698
1080;1.4311;-4.0183;0.0000;-0.2264;0.4807
1081;1.7423;-4.0180;0.0000;-0.2328;0.4767
1082;2.0536;-4.0177;0.0000;-0.2149;0.4738
1083;2.3650;-4.0174;0.0000;-0.2095;0.4793
1084;2.6762;-4.0174;0.0000;-0.2314;0.4706
1085;2.9864;-4.0180;0.0000;-0.2264;0.4553
1086;3.2942;-4.0202;0.0000;-0.2216;0.4430
1087;3.5979;-4.0253;0.0000;-0.2160;0.4087
1088;-4.3135;-4.2962;0.0000;-0.1841;0.4121
1089;-4.0028;-4.2908;0.0000;-0.1922;0.4308
1090;-3.6969;-4.2911;0.0000;-0.1797;0.4474
1091;-3.3898;-4.2912;0.0000;-0.1885;0.4701
1092;-3.0808;-4.2911;0.0000;-0.1946;0.4750
1093;-2.7705;-4.2910;0.0000;-0.2137;0.4688
1094;-2.4597;-4.2908;0.0000;-0.2127;0.4712
1095;-2.1486;-4.2906;0.0000;-0.1980;0.4861
1096;-1.8373;-4.2906;0.0000;-0.2103;0.5041
1097;-1.5261;-4.2905;0.0000;-0.2300;0.5075
1098;-1.2149;-4.2904;0.0000;-0.2086;0.4913
1099;-0.9035;-4.2904;0.0000;-0.1875;0.4660
1100;-0.5922;-4.2902;0.0000;-0.1995;0.4486
1101;-0.2809;-4.2902;0.0000;-0.1900;0.4384
1102;0.0305;-4.2902;0.0000;-0.1970;0.4317
1103;0.3418;-4.2901;0.0000;-0.1918;0.4403
1104;0.6532;-4.2901;0.0000;-0.1639;0.4416
1105;0.9646;-4.2900;0.0000;-0.1861;0.4226
1106;1.2759;-4.2899;0.0000;-0.2143;0.4317
1107;1.5872;-4.2896;0.0000;-0.2349;0.4700
1108;1.8984;-4.2892;0.0000;-0.2288;0.4948
1109;2.2097;-4.2890;0.0000;-0.2184;0.5226
1110;2.5211;-4.2888;0.0000;-0.2296;0.5319
1111;2.8326;-4.2887;0.0000;-0.2109;0.4933
1112;3.1451;-4.2886;0.0000;-0.2100;0.4540
1113;3.4637;-4.2832;0.0000;-0.2322;0.4281
1114;-4.3853;-4.5850;0.0000;-0.1686;0.4129
1115;-4.1269;-4.5666;0.0000;-0.1869;0.4184
1116;-3.8398;-4.5660;0.0000;-0.1851;0.4288
1117;-3.5393;-4.5659;0.0000;-0.1814;0.4375
1118;-3.2327;-4.5657;0.0000;-0.1963;0.4433
1119;-2.9234;-4.5654;0.0000;-0.2094;0.4401
1120;-2.6130;-4.5650;0.0000;-0.2111;0.4398
1121;-2.3020;-4.5647;0.0000;-0.2018;0.4659
1122;-1.9907;-4.5644;0.0000;-0.1928;0.4739
1123;-1.6794;-4.5641;0.0000;-0.2018;0.4660
1124;-1.3681;-4.5639;0.0000;-0.2234;0.4792
1125;-1.0569;-4.5635;0.0000;-0.2109;0.4896
1126;-0.7456;-4.5631;0.0000;-0.2016;0.4850
1127;-0.4342;-4.5628;0.0000;-0.2117;0.4683
1128;-0.1230;-4.5626;0.0000;-0.2003;0.4515
1129;0.1884;-4.5623;0.0000;-0.1846;0.4514
1130;0.4998;-4.5622;0.0000;-0.1518;0.4486
1131;0.8114;-4.5617;0.0000;-0.1636;0.4333
1132;1.1227;-4.5613;0.0000;-0.1967;0.4326
1133;1.4340;-4.5611;0.0000;-0.2186;0.4578
1134;1.7452;-4.5607;0.0000;-0.2303;0.4939
1135;2.0565;-4.5602;0.0000;-0.2116;0.5142
1136;2.3678;-4.5600;0.0000;-0.2285;0.5130
1137;2.6785;-4.5597;0.0000;-0.2164;0.4978
1138;2.9879;-4.5592;0.0000;-0.1848;0.4651
1139;3.2917;-4.5570;0.0000;-0.2187;0.4475
1140;3.5724;-4.5324;0.0000;-0.2438;0.4425
1141;-4.2841;-4.8469;0.0000;-0.1734;0.4228
1142;-3.9849;-4.8457;0.0000;-0.1853;0.4222
1143;-3.6835;-4.8437;0.0000;-0.1727;0.4207
1144;-3.3778;-4.8426;0.0000;-0.1901;0.4096
1145;-3.0691;-4.8418;0.0000;-0.2053;0.3984
1146;-2.7590;-4.8410;0.0000;-0.2158;0.4024
1147;-2.4481;-4.8403;0.0000;-0.2091;0.4067
1148;-2.1369;-4.8398;0.0000;-0.1987;0.4139
1149;-1.8256;-4.8391;0.0000;-0.1878;0.4241
1150;-1.5141;-4.8385;0.0000;-0.1905;0.4330
1151;-1.2027;-4.8379;0.0000;-0.2264;0.4559
1152;-0.8915;-4.8373;0.0000;-0.2236;0.4903
1153;-0.5802;-4.8366;0.0000;-0.2094;0.5041
1154;-0.2688;-4.8358;0.0000;-0.2087;0.4857
1155;0.0426;-4.8352;0.0000;-0.1904;0.4681
1156;0.3540;-4.8347;0.0000;-0.1663;0.4515
1157;0.6656;-4.8340;0.0000;-0.1552;0.4552
1158;0.9771;-4.8333;0.0000;-0.1810;0.4833
1159;1.2885;-4.8326;0.0000;-0.1867;0.4719
1160;1.6000;-4.8319;0.0000;-0.2009;0.4511
1161;1.9113;-4.8312;0.0000;-0.2008;0.4701
1162;2.2229;-4.8305;0.0000;-0.1997;0.4656
1163;2.5345;-4.8297;0.0000;-0.2339;0.4382
1164;2.8469;-4.8285;0.0000;-0.2095;0.4448
1165;3.1627;-4.8251;0.0000;-0.1999;0.4614
1166;3.4921;-4.8145;0.0000;-0.2485;0.4655
1167;-4.3866;-5.1037;0.0000;-0.1934;0.4145
1168;-4.1074;-5.1246;0.0000;-0.1801;0.4170
1169;-3.8109;-5.1227;0.0000;-0.1656;0.4223
1170;-3.5066;-5.1209;0.0000;-0.1793;0.4237
1171;-3.1986;-5.1194;0.0000;-0.1970;0.4135
1172;-2.8886;-5.1180;0.0000;-0.2194;0.4208
1173;-2.5778;-5.1168;0.0000;-0.2257;0.4233
1174;-2.2666;-5.1157;0.0000;-0.1950;0.3973
1175;-1.9551;-5.1146;0.0000;-0.1842;0.3966
1176;-1.6436;-5.1135;0.0000;-0.1944;0.4128
1177;-1.3320;-5.1125;0.0000;-0.2122;0.4157
1178;-1.0206;-5.1115;0.0000;-0.2198;0.4212
1179;-0.7092;-5.1104;0.0000;-0.2009;0.4470
1180;-0.3976;-5.1092;0.0000;-0.1990;0.4738
1181;-0.0861;-5.1080;0.0000;-0.2038;0.4752
1182;0.2254;-5.1068;0.0000;-0.1870;0.4503
1183;0.5370;-5.1057;0.0000;-0.1703;0.4309
1184;0.8486;-5.1046;0.0000;-0.1809;0.4354
1185;1.1602;-5.1035;0.0000;-0.1707;0.4390
1186;1.4718;-5.1022;0.0000;-0.1525;0.4283
1187;1.7835;-5.1009;0.0000;-0.1852;0.4226
1188;2.0950;-5.0998;0.0000;-0.1895;0.4236
1189;2.4065;-5.0985;0.0000;-0.2036;0.4069
1190;2.7171;-5.0970;0.0000;-0.2173;0.4093
1191;3.0248;-5.0949;0.0000;-0.2029;0.4382
1192;3.3217;-5.0895;0.0000;-0.2259;0.4488
1193;3.5808;-5.0854;0.0000;-0.2723;0.4435
