# Units: length:mm angle:deg time:s strain:% 
# Stage: image-000006
stage;index;relative_time;date
"image-000006";7;6.0000;"2022-09-26T12:00:56.387"
# Name : Surface_xy
id;x;y;z;epsilon_x;epsilon_y
0;-4.5228;5.8494;0.0000;-0.0083;0.0886
1;-4.2105;5.8494;0.0000;-0.0142;0.0849
2;-3.8982;5.8494;0.0000;-0.0114;0.0820
3;-3.5859;5.8494;0.0000;0.0028;0.0667
4;-3.2736;5.8495;0.0000;-0.0045;0.0514
5;-2.9613;5.8496;0.0000;-0.0204;0.0417
6;-2.6491;5.8497;0.0000;0.0024;0.0466
7;-2.3367;5.8498;0.0000;0.0155;0.0464
8;-2.0244;5.8498;0.0000;0.0005;0.0360
9;-1.7121;5.8500;0.0000;0.0049;0.0484
10;-1.3997;5.8501;0.0000;0.0089;0.0460
11;-1.0873;5.8503;0.0000;0.0012;0.0435
12;-0.7751;5.8504;0.0000;-0.0197;0.0362
13;-0.4628;5.8505;0.0000;-0.0106;0.0298
14;-0.1505;5.8507;0.0000;0.0017;0.0451
15;0.1618;5.8509;0.0000;-0.0068;0.0685
16;0.4741;5.8510;0.0000;-0.0094;0.0612
17;0.7864;5.8511;0.0000;0.0062;0.0457
18;1.0988;5.8513;0.0000;0.0185;0.0542
19;1.4111;5.8516;0.0000;-0.0095;0.0699
20;1.7234;5.8518;0.0000;0.0004;0.0497
21;2.0358;5.8520;0.0000;0.0164;0.0576
22;2.3481;5.8521;0.0000;-0.0002;0.0504
23;2.6604;5.8522;0.0000;-0.0074;0.0086
24;2.9727;5.8525;0.0000;0.0092;0.0525
25;3.2851;5.8527;0.0000;0.0241;0.0689
26;3.5975;5.8529;0.0000;0.0113;0.0371
27;3.8466;5.7438;0.0000;0.0064;0.0237
28;3.8456;5.4315;0.0000;0.0038;0.0360
29;3.8446;5.1190;0.0000;-0.0006;0.0518
30;3.8437;4.8065;0.0000;0.0132;0.0530
31;3.8428;4.4941;0.0000;0.0238;0.0482
32;3.8418;4.1816;0.0000;0.0194;0.0575
33;3.8408;3.8690;0.0000;-0.0088;0.0752
34;3.8398;3.5565;0.0000;-0.0033;0.0804
35;3.8389;3.2439;0.0000;0.0142;0.0628
36;3.8379;2.9315;0.0000;-0.0001;0.0622
37;3.8370;2.6189;0.0000;-0.0174;0.0510
38;3.8360;2.3065;0.0000;-0.0216;0.0317
39;3.8351;1.9941;0.0000;-0.0068;0.0256
40;3.8342;1.6817;0.0000;-0.0118;0.0146
41;3.8333;1.3694;0.0000;-0.0080;0.0046
42;3.8323;1.0571;0.0000;-0.0451;-0.0024
43;3.8313;0.7447;0.0000;-0.0444;-0.0062
44;3.8305;0.4324;0.0000;-0.0228;0.0013
45;3.8296;0.1201;0.0000;-0.0364;0.0053
46;3.8287;-0.1922;0.0000;-0.0370;-0.0219
47;3.8279;-0.5044;0.0000;-0.0303;-0.0149
48;3.8270;-0.8167;0.0000;-0.0217;-0.0046
49;3.8261;-1.1290;0.0000;-0.0214;-0.0097
50;3.8252;-1.4413;0.0000;-0.0344;-0.0122
51;3.8243;-1.7536;0.0000;-0.0275;-0.0082
52;3.8235;-2.0659;0.0000;-0.0103;-0.0020
53;3.8226;-2.3782;0.0000;-0.0079;-0.0002
54;3.8217;-2.6905;0.0000;0.0096;-0.0039
55;3.8208;-3.0028;0.0000;0.0081;-0.0077
56;3.8198;-3.3151;0.0000;0.0027;0.0011
57;3.8189;-3.6274;0.0000;0.0109;-0.0108
58;3.8180;-3.9397;0.0000;-0.0087;-0.0156
59;3.8170;-4.2519;0.0000;-0.0321;-0.0302
60;3.8161;-4.5641;0.0000;-0.0347;-0.0227
61;3.8152;-4.8764;0.0000;-0.0250;-0.0096
62;3.8142;-5.1887;0.0000;-0.0302;0.0007
63;3.5487;-5.2609;0.0000;-0.0195;0.0001
64;3.2364;-5.2626;0.0000;-0.0020;-0.0016
65;2.9241;-5.2643;0.0000;-0.0053;-0.0390
66;2.6118;-5.2661;0.0000;-0.0137;-0.0302
67;2.2996;-5.2679;0.0000;-0.0170;-0.0128
68;1.9873;-5.2696;0.0000;-0.0156;-0.0240
69;1.6750;-5.2713;0.0000;-0.0107;-0.0084
70;1.3628;-5.2731;0.0000;-0.0149;0.0121
71;1.0505;-5.2748;0.0000;-0.0367;0.0003
72;0.7384;-5.2766;0.0000;-0.0502;0.0004
73;0.4262;-5.2783;0.0000;-0.0426;0.0159
74;0.1140;-5.2800;0.0000;-0.0366;0.0010
75;-0.1982;-5.2818;0.0000;-0.0187;-0.0032
76;-0.5105;-5.2835;0.0000;-0.0226;0.0043
77;-0.8227;-5.2853;0.0000;-0.0409;0.0084
78;-1.1349;-5.2871;0.0000;-0.0309;0.0241
79;-1.4471;-5.2888;0.0000;-0.0245;0.0172
80;-1.7593;-5.2905;0.0000;-0.0241;0.0162
81;-2.0716;-5.2923;0.0000;-0.0166;0.0225
82;-2.3839;-5.2941;0.0000;-0.0160;0.0319
83;-2.6961;-5.2958;0.0000;-0.0063;0.0576
84;-3.0084;-5.2976;0.0000;0.0149;0.0511
85;-3.3208;-5.2994;0.0000;0.0203;0.0468
86;-3.6332;-5.3011;0.0000;0.0191;0.0515
87;-3.9456;-5.3029;0.0000;0.0135;0.0503
88;-4.2579;-5.3046;0.0000;0.0299;0.0571
89;-4.5692;-5.2825;0.0000;0.0423;0.0206
90;-4.6194;-5.0153;0.0000;0.0190;0.0207
91;-4.6197;-4.7029;0.0000;0.0351;0.0468
92;-4.6200;-4.3904;0.0000;0.0180;0.0649
93;-4.6202;-4.0778;0.0000;0.0171;0.0636
94;-4.6205;-3.7653;0.0000;0.0227;0.0628
95;-4.6208;-3.4529;0.0000;0.0265;0.0544
96;-4.6211;-3.1404;0.0000;0.0433;0.0360
97;-4.6212;-2.8280;0.0000;0.0232;0.0394
98;-4.6214;-2.5155;0.0000;-0.0094;0.0367
99;-4.6217;-2.2031;0.0000;0.0057;0.0142
100;-4.6219;-1.8908;0.0000;-0.0053;0.0113
101;-4.6221;-1.5785;0.0000;-0.0151;-0.0048
102;-4.6224;-1.2662;0.0000;-0.0088;-0.0065
103;-4.6227;-0.9539;0.0000;-0.0237;-0.0143
104;-4.6230;-0.6416;0.0000;-0.0329;-0.0120
105;-4.6233;-0.3293;0.0000;-0.0110;-0.0314
106;-4.6237;-0.0171;0.0000;-0.0004;-0.0322
107;-4.6240;0.2951;0.0000;-0.0183;-0.0201
108;-4.6243;0.6074;0.0000;-0.0342;0.0008
109;-4.6246;0.9197;0.0000;-0.0485;0.0147
110;-4.6249;1.2321;0.0000;-0.0322;0.0267
111;-4.6252;1.5445;0.0000;-0.0373;0.0144
112;-4.6256;1.8569;0.0000;-0.0257;0.0301
113;-4.6259;2.1693;0.0000;-0.0172;0.0544
114;-4.6262;2.4818;0.0000;-0.0268;0.0499
115;-4.6266;2.7943;0.0000;-0.0305;0.0597
116;-4.6269;3.1068;0.0000;-0.0374;0.0758
117;-4.6273;3.4194;0.0000;-0.0115;0.0778
118;-4.6278;3.7320;0.0000;0.0176;0.0843
119;-4.6281;4.0446;0.0000;0.0055;0.0986
120;-4.6285;4.3572;0.0000;-0.0102;0.0871
121;-4.6289;4.6697;0.0000;-0.0027;0.0741
122;-4.6293;4.9823;0.0000;0.0045;0.0773
123;-4.6296;5.2949;0.0000;0.0115;0.0947
124;-4.6300;5.6075;0.0000;0.0048;0.0987
125;-4.3314;5.5728;0.0000;-0.0049;0.0867
126;-4.0290;5.5687;0.0000;-0.0145;0.0742
127;-3.7231;5.5660;0.0000;-0.0052;0.0671
128;-3.4140;5.5651;0.0000;0.0009;0.0557
129;-3.1032;5.5648;0.0000;-0.0136;0.0541
130;-2.7917;5.5647;0.0000;-0.0119;0.0562
131;-2.4797;5.5647;0.0000;0.0120;0.0530
132;-2.1676;5.5646;0.0000;0.0093;0.0474
133;-1.8555;5.5647;0.0000;-0.0014;0.0437
134;-1.5434;5.5647;0.0000;0.0015;0.0438
135;-1.2313;5.5648;0.0000;0.0019;0.0448
136;-0.9192;5.5649;0.0000;-0.0081;0.0404
137;-0.6071;5.5649;0.0000;-0.0179;0.0344
138;-0.2950;5.5650;0.0000;-0.0029;0.0345
139;0.0171;5.5651;0.0000;-0.0073;0.0405
140;0.3291;5.5651;0.0000;-0.0094;0.0469
141;0.6413;5.5652;0.0000;-0.0010;0.0491
142;0.9534;5.5653;0.0000;0.0119;0.0518
143;1.2655;5.5654;0.0000;-0.0053;0.0631
144;1.5776;5.5655;0.0000;-0.0084;0.0672
145;1.8897;5.5657;0.0000;0.0113;0.0610
146;2.2017;5.5658;0.0000;0.0137;0.0541
147;2.5129;5.5660;0.0000;-0.0028;0.0382
148;2.8210;5.5665;0.0000;-0.0038;0.0388
149;3.1206;5.5676;0.0000;0.0140;0.0564
150;3.4015;5.5701;0.0000;0.0157;0.0473
151;3.6439;5.5621;0.0000;0.0041;0.0276
152;-4.4281;5.2907;0.0000;0.0069;0.0892
153;-4.1540;5.2891;0.0000;-0.0067;0.0808
154;-3.8613;5.2845;0.0000;-0.0144;0.0736
155;-3.5582;5.2830;0.0000;-0.0077;0.0644
156;-3.2501;5.2825;0.0000;-0.0085;0.0654
157;-2.9396;5.2823;0.0000;-0.0126;0.0754
158;-2.6282;5.2822;0.0000;-0.0041;0.0666
159;-2.3164;5.2821;0.0000;0.0158;0.0473
160;-2.0044;5.2821;0.0000;0.0037;0.0396
161;-1.6925;5.2821;0.0000;-0.0079;0.0381
162;-1.3805;5.2821;0.0000;-0.0060;0.0423
163;-1.0685;5.2821;0.0000;0.0004;0.0492
164;-0.7565;5.2822;0.0000;-0.0140;0.0450
165;-0.4446;5.2821;0.0000;-0.0097;0.0371
166;-0.1325;5.2822;0.0000;0.0001;0.0402
167;0.1794;5.2822;0.0000;-0.0152;0.0405
168;0.4914;5.2821;0.0000;-0.0106;0.0424
169;0.8034;5.2821;0.0000;-0.0004;0.0515
170;1.1154;5.2822;0.0000;-0.0035;0.0579
171;1.4273;5.2822;0.0000;-0.0086;0.0629
172;1.7393;5.2823;0.0000;-0.0009;0.0674
173;2.0513;5.2824;0.0000;0.0111;0.0682
174;2.3629;5.2824;0.0000;0.0145;0.0608
175;2.6728;5.2825;0.0000;-0.0013;0.0507
176;2.9781;5.2829;0.0000;-0.0022;0.0418
177;3.2759;5.2833;0.0000;0.0142;0.0411
178;3.5680;5.2851;0.0000;0.0041;0.0456
179;-4.3090;5.0165;0.0000;0.0022;0.0839
180;-4.0093;5.0066;0.0000;-0.0060;0.0867
181;-3.7074;5.0038;0.0000;-0.0133;0.0855
182;-3.4010;5.0034;0.0000;-0.0180;0.0910
183;-3.0917;5.0032;0.0000;-0.0140;0.0866
184;-2.7808;5.0031;0.0000;-0.0087;0.0791
185;-2.4693;5.0031;0.0000;0.0056;0.0683
186;-2.1575;5.0031;0.0000;0.0080;0.0549
187;-1.8456;5.0030;0.0000;-0.0062;0.0514
188;-1.5337;5.0030;0.0000;-0.0075;0.0474
189;-1.2217;5.0029;0.0000;0.0003;0.0450
190;-0.9098;5.0029;0.0000;-0.0044;0.0468
191;-0.5978;5.0029;0.0000;-0.0155;0.0395
192;-0.2859;5.0028;0.0000;-0.0027;0.0470
193;0.0260;5.0028;0.0000;-0.0111;0.0649
194;0.3379;5.0028;0.0000;-0.0170;0.0573
195;0.6498;5.0027;0.0000;-0.0043;0.0462
196;0.9618;5.0026;0.0000;-0.0033;0.0518
197;1.2737;5.0026;0.0000;-0.0063;0.0604
198;1.5857;5.0026;0.0000;-0.0066;0.0666
199;1.8976;5.0026;0.0000;-0.0039;0.0756
200;2.2093;5.0026;0.0000;0.0171;0.0746
201;2.5200;5.0026;0.0000;0.0113;0.0611
202;2.8268;5.0027;0.0000;-0.0040;0.0509
203;3.1239;5.0029;0.0000;0.0017;0.0448
204;3.4019;5.0005;0.0000;0.0049;0.0519
205;3.6413;5.0011;0.0000;0.0035;0.0612
206;-4.4020;4.7581;0.0000;0.0003;0.0800
207;-4.1426;4.7321;0.0000;-0.0013;0.0873
208;-3.8539;4.7274;0.0000;-0.0049;0.0886
209;-3.5525;4.7270;0.0000;-0.0194;0.0908
210;-3.2452;4.7271;0.0000;-0.0255;0.0868
211;-2.9353;4.7272;0.0000;-0.0150;0.0779
212;-2.6241;4.7271;0.0000;-0.0081;0.0821
213;-2.3124;4.7271;0.0000;0.0032;0.0810
214;-2.0006;4.7271;0.0000;0.0050;0.0701
215;-1.6887;4.7270;0.0000;0.0002;0.0618
216;-1.3767;4.7270;0.0000;-0.0011;0.0529
217;-1.0648;4.7269;0.0000;-0.0036;0.0490
218;-0.7529;4.7269;0.0000;-0.0143;0.0549
219;-0.4410;4.7269;0.0000;-0.0046;0.0577
220;-0.1291;4.7267;0.0000;-0.0021;0.0573
221;0.1829;4.7266;0.0000;-0.0154;0.0627
222;0.4948;4.7266;0.0000;-0.0121;0.0601
223;0.8067;4.7265;0.0000;-0.0103;0.0508
224;1.1186;4.7264;0.0000;-0.0073;0.0560
225;1.4306;4.7263;0.0000;-0.0044;0.0666
226;1.7424;4.7263;0.0000;-0.0153;0.0679
227;2.0542;4.7263;0.0000;0.0045;0.0648
228;2.3656;4.7263;0.0000;0.0151;0.0625
229;2.6748;4.7262;0.0000;0.0040;0.0644
230;2.9787;4.7263;0.0000;-0.0014;0.0710
231;3.2744;4.7262;0.0000;0.0067;0.0666
232;3.5669;4.7148;0.0000;0.0053;0.0538
233;-4.3265;4.4678;0.0000;-0.0077;0.0824
234;-4.0148;4.4546;0.0000;-0.0081;0.0813
235;-3.7080;4.4531;0.0000;-0.0124;0.0790
236;-3.4001;4.4533;0.0000;-0.0186;0.0707
237;-3.0904;4.4535;0.0000;-0.0223;0.0630
238;-2.7795;4.4535;0.0000;-0.0233;0.0660
239;-2.4681;4.4535;0.0000;-0.0147;0.0761
240;-2.1563;4.4535;0.0000;0.0028;0.0760
241;-1.8444;4.4534;0.0000;0.0107;0.0688
242;-1.5324;4.4534;0.0000;0.0013;0.0723
243;-1.2205;4.4533;0.0000;0.0004;0.0748
244;-0.9086;4.4533;0.0000;-0.0095;0.0754
245;-0.5967;4.4532;0.0000;-0.0013;0.0817
246;-0.2847;4.4531;0.0000;0.0069;0.0702
247;0.0272;4.4530;0.0000;-0.0104;0.0504
248;0.3391;4.4529;0.0000;-0.0207;0.0559
249;0.6510;4.4528;0.0000;-0.0207;0.0627
250;0.9628;4.4527;0.0000;-0.0212;0.0598
251;1.2747;4.4526;0.0000;-0.0073;0.0581
252;1.5867;4.4525;0.0000;-0.0070;0.0570
253;1.8985;4.4525;0.0000;-0.0098;0.0538
254;2.2101;4.4525;0.0000;0.0058;0.0562
255;2.5203;4.4523;0.0000;0.0069;0.0700
256;2.8257;4.4522;0.0000;0.0020;0.0765
257;3.1192;4.4525;0.0000;0.0029;0.0687
258;3.3912;4.4527;0.0000;0.0086;0.0540
259;3.6311;4.4230;0.0000;0.0113;0.0497
260;-4.4114;4.1851;0.0000;-0.0101;0.1002
261;-4.1514;4.1841;0.0000;-0.0223;0.0898
262;-3.8575;4.1815;0.0000;-0.0170;0.0760
263;-3.5535;4.1812;0.0000;-0.0074;0.0701
264;-3.2451;4.1814;0.0000;-0.0141;0.0740
265;-2.9349;4.1815;0.0000;-0.0252;0.0708
266;-2.6237;4.1814;0.0000;-0.0240;0.0673
267;-2.3121;4.1813;0.0000;-0.0083;0.0775
268;-2.0002;4.1813;0.0000;-0.0016;0.0865
269;-1.6883;4.1813;0.0000;-0.0002;0.0846
270;-1.3764;4.1812;0.0000;0.0022;0.0788
271;-1.0645;4.1811;0.0000;-0.0017;0.0835
272;-0.7526;4.1810;0.0000;-0.0006;0.0840
273;-0.4406;4.1809;0.0000;0.0104;0.0736
274;-0.1286;4.1809;0.0000;0.0011;0.0610
275;0.1833;4.1808;0.0000;-0.0210;0.0496
276;0.4951;4.1807;0.0000;-0.0243;0.0495
277;0.8070;4.1806;0.0000;-0.0171;0.0588
278;1.1189;4.1805;0.0000;-0.0175;0.0603
279;1.4308;4.1804;0.0000;-0.0149;0.0486
280;1.7427;4.1804;0.0000;-0.0136;0.0475
281;2.0544;4.1803;0.0000;-0.0042;0.0584
282;2.3654;4.1801;0.0000;0.0054;0.0669
283;2.6737;4.1796;0.0000;0.0053;0.0674
284;2.9743;4.1790;0.0000;-0.0076;0.0586
285;3.2611;4.1792;0.0000;0.0017;0.0569
286;3.5359;4.1812;0.0000;0.0078;0.0579
287;-4.3288;3.9067;0.0000;-0.0063;0.0945
288;-4.0161;3.9113;0.0000;-0.0234;0.0898
289;-3.7085;3.9105;0.0000;-0.0241;0.0811
290;-3.4002;3.9102;0.0000;-0.0090;0.0857
291;-3.0902;3.9102;0.0000;-0.0146;0.0887
292;-2.7793;3.9102;0.0000;-0.0246;0.0800
293;-2.4678;3.9102;0.0000;-0.0174;0.0743
294;-2.1561;3.9101;0.0000;-0.0120;0.0788
295;-1.8443;3.9100;0.0000;-0.0095;0.0867
296;-1.5324;3.9100;0.0000;0.0017;0.0784
297;-1.2204;3.9099;0.0000;0.0036;0.0655
298;-0.9085;3.9098;0.0000;-0.0006;0.0672
299;-0.5965;3.9097;0.0000;0.0040;0.0711
300;-0.2845;3.9097;0.0000;0.0087;0.0702
301;0.0274;3.9096;0.0000;-0.0085;0.0657
302;0.3393;3.9096;0.0000;-0.0321;0.0581
303;0.6511;3.9095;0.0000;-0.0186;0.0579
304;0.9630;3.9093;0.0000;-0.0087;0.0583
305;1.2749;3.9092;0.0000;-0.0206;0.0516
306;1.5868;3.9092;0.0000;-0.0236;0.0468
307;1.8986;3.9091;0.0000;-0.0131;0.0485
308;2.2101;3.9089;0.0000;0.0006;0.0533
309;2.5200;3.9084;0.0000;0.0013;0.0515
310;2.8250;3.9073;0.0000;-0.0128;0.0477
311;3.1177;3.9059;0.0000;-0.0062;0.0550
312;3.3888;3.9085;0.0000;0.0039;0.0655
313;3.6294;3.9430;0.0000;0.0044;0.0653
314;-4.4032;3.6229;0.0000;0.0000;0.0721
315;-4.1435;3.6395;0.0000;-0.0139;0.0782
316;-3.8540;3.6402;0.0000;-0.0303;0.0875
317;-3.5522;3.6396;0.0000;-0.0267;0.0872
318;-3.2446;3.6395;0.0000;-0.0107;0.0821
319;-2.9346;3.6395;0.0000;-0.0197;0.0784
320;-2.6235;3.6394;0.0000;-0.0235;0.0718
321;-2.3119;3.6393;0.0000;-0.0050;0.0720
322;-2.0001;3.6393;0.0000;-0.0126;0.0732
323;-1.6882;3.6392;0.0000;-0.0115;0.0705
324;-1.3763;3.6392;0.0000;0.0032;0.0741
325;-1.0643;3.6391;0.0000;0.0005;0.0688
326;-0.7524;3.6390;0.0000;-0.0036;0.0646
327;-0.4405;3.6389;0.0000;0.0067;0.0743
328;-0.1285;3.6389;0.0000;0.0034;0.0785
329;0.1834;3.6388;0.0000;-0.0267;0.0755
330;0.4952;3.6388;0.0000;-0.0297;0.0700
331;0.8071;3.6386;0.0000;-0.0083;0.0682
332;1.1190;3.6385;0.0000;-0.0146;0.0614
333;1.4309;3.6385;0.0000;-0.0306;0.0565
334;1.7427;3.6384;0.0000;-0.0219;0.0584
335;2.0544;3.6383;0.0000;-0.0005;0.0544
336;2.3656;3.6380;0.0000;0.0020;0.0505
337;2.6744;3.6371;0.0000;-0.0209;0.0533
338;2.9776;3.6355;0.0000;-0.0202;0.0600
339;3.2726;3.6360;0.0000;0.0060;0.0681
340;3.5639;3.6542;0.0000;0.0003;0.0779
341;-4.3080;3.3640;0.0000;-0.0136;0.0783
342;-4.0071;3.3683;0.0000;-0.0210;0.0777
343;-3.7051;3.3687;0.0000;-0.0382;0.0781
344;-3.3989;3.3689;0.0000;-0.0276;0.0758
345;-3.0898;3.3689;0.0000;-0.0148;0.0743
346;-2.7791;3.3689;0.0000;-0.0150;0.0769
347;-2.4676;3.3689;0.0000;-0.0066;0.0822
348;-2.1559;3.3688;0.0000;-0.0062;0.0877
349;-1.8441;3.3687;0.0000;-0.0234;0.0826
350;-1.5322;3.3687;0.0000;-0.0065;0.0753
351;-1.2203;3.3686;0.0000;0.0032;0.0764
352;-0.9083;3.3685;0.0000;-0.0021;0.0739
353;-0.5964;3.3684;0.0000;0.0028;0.0669
354;-0.2844;3.3683;0.0000;0.0059;0.0665
355;0.0275;3.3683;0.0000;-0.0150;0.0768
356;0.3393;3.3682;0.0000;-0.0288;0.0840
357;0.6512;3.3682;0.0000;-0.0144;0.0718
358;0.9631;3.3680;0.0000;-0.0130;0.0600
359;1.2750;3.3680;0.0000;-0.0269;0.0587
360;1.5868;3.3680;0.0000;-0.0346;0.0583
361;1.8986;3.3679;0.0000;-0.0112;0.0615
362;2.2102;3.3677;0.0000;0.0068;0.0618
363;2.5205;3.3672;0.0000;-0.0101;0.0634
364;2.8269;3.3661;0.0000;-0.0293;0.0722
365;3.1240;3.3652;0.0000;-0.0116;0.0764
366;3.4025;3.3698;0.0000;0.0008;0.0764
367;3.6414;3.3748;0.0000;0.0054;0.0766
368;-4.4292;3.1033;0.0000;-0.0233;0.0787
369;-4.1478;3.0991;0.0000;-0.0183;0.0776
370;-3.8540;3.0981;0.0000;-0.0220;0.0694
371;-3.5517;3.0982;0.0000;-0.0383;0.0642
372;-3.2444;3.0984;0.0000;-0.0321;0.0626
373;-2.9345;3.0985;0.0000;-0.0112;0.0689
374;-2.6234;3.0984;0.0000;-0.0137;0.0784
375;-2.3118;3.0983;0.0000;-0.0151;0.0785
376;-2.0000;3.0982;0.0000;-0.0154;0.0768
377;-1.6882;3.0982;0.0000;-0.0129;0.0757
378;-1.3762;3.0982;0.0000;-0.0009;0.0630
379;-1.0643;3.0981;0.0000;0.0016;0.0571
380;-0.7524;3.0981;0.0000;0.0073;0.0642
381;-0.4404;3.0980;0.0000;0.0067;0.0584
382;-0.1284;3.0979;0.0000;-0.0089;0.0541
383;0.1834;3.0978;0.0000;-0.0185;0.0627
384;0.4953;3.0977;0.0000;-0.0173;0.0665
385;0.8072;3.0977;0.0000;-0.0127;0.0521
386;1.1191;3.0976;0.0000;-0.0207;0.0436
387;1.4310;3.0976;0.0000;-0.0392;0.0549
388;1.7427;3.0975;0.0000;-0.0283;0.0600
389;2.0545;3.0974;0.0000;0.0017;0.0589
390;2.3658;3.0971;0.0000;-0.0039;0.0580
391;2.6750;3.0965;0.0000;-0.0247;0.0574
392;2.9797;3.0958;0.0000;-0.0215;0.0647
393;3.2774;3.0960;0.0000;-0.0039;0.0685
394;3.5691;3.0978;0.0000;0.0048;0.0637
395;-4.3072;2.8377;0.0000;-0.0255;0.0538
396;-4.0064;2.8286;0.0000;-0.0147;0.0475
397;-3.7045;2.8276;0.0000;-0.0292;0.0469
398;-3.3985;2.8279;0.0000;-0.0428;0.0453
399;-3.0896;2.8281;0.0000;-0.0240;0.0529
400;-2.7789;2.8281;0.0000;-0.0102;0.0596
401;-2.4675;2.8280;0.0000;-0.0237;0.0607
402;-2.1559;2.8279;0.0000;-0.0199;0.0576
403;-1.8441;2.8279;0.0000;-0.0099;0.0522
404;-1.5322;2.8279;0.0000;-0.0089;0.0516
405;-1.2203;2.8279;0.0000;-0.0052;0.0459
406;-0.9083;2.8278;0.0000;0.0076;0.0458
407;-0.5963;2.8277;0.0000;0.0103;0.0486
408;-0.2844;2.8276;0.0000;-0.0012;0.0417
409;0.0275;2.8276;0.0000;-0.0097;0.0407
410;0.3394;2.8275;0.0000;-0.0160;0.0435
411;0.6513;2.8274;0.0000;-0.0165;0.0457
412;0.9632;2.8274;0.0000;-0.0166;0.0455
413;1.2751;2.8273;0.0000;-0.0331;0.0473
414;1.5869;2.8272;0.0000;-0.0407;0.0500
415;1.8986;2.8271;0.0000;-0.0159;0.0457
416;2.2102;2.8270;0.0000;-0.0019;0.0456
417;2.5205;2.8267;0.0000;-0.0163;0.0457
418;2.8268;2.8263;0.0000;-0.0246;0.0449
419;3.1232;2.8262;0.0000;-0.0065;0.0500
420;3.4003;2.8229;0.0000;0.0089;0.0584
421;3.6370;2.8181;0.0000;-0.0032;0.0638
422;-4.4014;2.5823;0.0000;-0.0270;0.0485
423;-4.1421;2.5599;0.0000;-0.0193;0.0401
424;-3.8528;2.5568;0.0000;-0.0271;0.0358
425;-3.5513;2.5572;0.0000;-0.0421;0.0424
426;-3.2442;2.5576;0.0000;-0.0387;0.0465
427;-2.9343;2.5578;0.0000;-0.0232;0.0389
428;-2.6233;2.5577;0.0000;-0.0165;0.0319
429;-2.3117;2.5576;0.0000;-0.0154;0.0316
430;-1.9999;2.5576;0.0000;-0.0095;0.0364
431;-1.6881;2.5576;0.0000;-0.0128;0.0442
432;-1.3762;2.5576;0.0000;-0.0108;0.0491
433;-1.0643;2.5576;0.0000;-0.0032;0.0470
434;-0.7523;2.5574;0.0000;0.0057;0.0400
435;-0.4404;2.5574;0.0000;0.0057;0.0374
436;-0.1284;2.5574;0.0000;-0.0043;0.0378
437;0.1835;2.5572;0.0000;-0.0084;0.0372
438;0.4954;2.5571;0.0000;-0.0161;0.0363
439;0.8073;2.5571;0.0000;-0.0191;0.0361
440;1.1191;2.5571;0.0000;-0.0299;0.0411
441;1.4310;2.5570;0.0000;-0.0347;0.0437
442;1.7428;2.5569;0.0000;-0.0224;0.0369
443;2.0545;2.5568;0.0000;-0.0135;0.0312
444;2.3656;2.5566;0.0000;-0.0188;0.0315
445;2.6743;2.5563;0.0000;-0.0247;0.0327
446;2.9771;2.5561;0.0000;-0.0159;0.0317
447;3.2706;2.5555;0.0000;0.0088;0.0361
448;3.5608;2.5393;0.0000;-0.0010;0.0409
449;-4.3259;2.2973;0.0000;-0.0249;0.0494
450;-4.0141;2.2872;0.0000;-0.0318;0.0461
451;-3.7072;2.2867;0.0000;-0.0391;0.0469
452;-3.3994;2.2872;0.0000;-0.0384;0.0408
453;-3.0898;2.2875;0.0000;-0.0331;0.0250
454;-2.7790;2.2876;0.0000;-0.0208;0.0160
455;-2.4675;2.2875;0.0000;-0.0075;0.0115
456;-2.1558;2.2874;0.0000;-0.0111;0.0113
457;-1.8440;2.2873;0.0000;-0.0192;0.0224
458;-1.5321;2.2873;0.0000;-0.0149;0.0361
459;-1.2202;2.2873;0.0000;0.0000;0.0418
460;-0.9082;2.2872;0.0000;-0.0018;0.0328
461;-0.5963;2.2871;0.0000;-0.0010;0.0340
462;-0.2844;2.2871;0.0000;-0.0016;0.0423
463;0.0275;2.2870;0.0000;-0.0095;0.0311
464;0.3394;2.2869;0.0000;-0.0156;0.0230
465;0.6513;2.2869;0.0000;-0.0151;0.0262
466;0.9632;2.2869;0.0000;-0.0178;0.0245
467;1.2751;2.2867;0.0000;-0.0306;0.0234
468;1.5869;2.2867;0.0000;-0.0284;0.0309
469;1.8987;2.2866;0.0000;-0.0171;0.0323
470;2.2102;2.2865;0.0000;-0.0114;0.0259
471;2.5201;2.2862;0.0000;-0.0247;0.0233
472;2.8248;2.2858;0.0000;-0.0253;0.0226
473;3.1171;2.2856;0.0000;-0.0077;0.0239
474;3.3870;2.2852;0.0000;0.0006;0.0248
475;3.6266;2.2494;0.0000;-0.0029;0.0256
476;-4.4104;2.0219;0.0000;-0.0230;0.0441
477;-4.1500;2.0174;0.0000;-0.0335;0.0457
478;-3.8563;2.0170;0.0000;-0.0351;0.0481
479;-3.5526;2.0170;0.0000;-0.0355;0.0410
480;-3.2445;2.0173;0.0000;-0.0312;0.0304
481;-2.9344;2.0174;0.0000;-0.0251;0.0303
482;-2.6232;2.0174;0.0000;-0.0164;0.0308
483;-2.3116;2.0173;0.0000;-0.0157;0.0225
484;-1.9998;2.0172;0.0000;-0.0236;0.0152
485;-1.6880;2.0171;0.0000;-0.0209;0.0195
486;-1.3762;2.0170;0.0000;-0.0053;0.0271
487;-1.0642;2.0171;0.0000;0.0032;0.0272
488;-0.7523;2.0170;0.0000;-0.0010;0.0295
489;-0.4403;2.0169;0.0000;-0.0026;0.0379
490;-0.1284;2.0168;0.0000;-0.0076;0.0319
491;0.1835;2.0168;0.0000;-0.0168;0.0173
492;0.4954;2.0167;0.0000;-0.0212;0.0184
493;0.8073;2.0167;0.0000;-0.0110;0.0206
494;1.1192;2.0166;0.0000;-0.0138;0.0166
495;1.4311;2.0165;0.0000;-0.0236;0.0216
496;1.7429;2.0164;0.0000;-0.0264;0.0301
497;2.0545;2.0164;0.0000;-0.0127;0.0310
498;2.3655;2.0161;0.0000;-0.0153;0.0234
499;2.6735;2.0155;0.0000;-0.0270;0.0209
500;2.9737;2.0143;0.0000;-0.0213;0.0270
501;3.2596;2.0138;0.0000;-0.0127;0.0242
502;3.5305;2.0178;0.0000;-0.0109;0.0209
503;-4.3259;1.7386;0.0000;-0.0329;0.0250
504;-4.0140;1.7468;0.0000;-0.0312;0.0382
505;-3.7071;1.7471;0.0000;-0.0320;0.0340
506;-3.3993;1.7471;0.0000;-0.0319;0.0300
507;-3.0897;1.7471;0.0000;-0.0299;0.0370
508;-2.7788;1.7471;0.0000;-0.0215;0.0346
509;-2.4674;1.7471;0.0000;-0.0175;0.0218
510;-2.1557;1.7471;0.0000;-0.0255;0.0210
511;-1.8439;1.7470;0.0000;-0.0226;0.0195
512;-1.5320;1.7469;0.0000;-0.0144;0.0140
513;-1.2202;1.7468;0.0000;-0.0101;0.0231
514;-0.9082;1.7468;0.0000;0.0044;0.0301
515;-0.5962;1.7467;0.0000;0.0046;0.0205
516;-0.2843;1.7466;0.0000;-0.0055;0.0091
517;0.0276;1.7466;0.0000;-0.0059;0.0069
518;0.3395;1.7466;0.0000;-0.0179;0.0074
519;0.6514;1.7465;0.0000;-0.0207;0.0044
520;0.9632;1.7465;0.0000;-0.0176;0.0078
521;1.2751;1.7464;0.0000;-0.0159;0.0137
522;1.5870;1.7462;0.0000;-0.0176;0.0071
523;1.8988;1.7462;0.0000;-0.0226;0.0070
524;2.2103;1.7460;0.0000;-0.0153;0.0192
525;2.5202;1.7455;0.0000;-0.0183;0.0266
526;2.8251;1.7441;0.0000;-0.0229;0.0237
527;3.1184;1.7423;0.0000;-0.0172;0.0167
528;3.3914;1.7445;0.0000;-0.0173;0.0131
529;3.6335;1.7931;0.0000;-0.0071;0.0149
530;-4.3996;1.4504;0.0000;-0.0353;0.0083
531;-4.1414;1.4739;0.0000;-0.0337;0.0130
532;-3.8526;1.4769;0.0000;-0.0314;0.0229
533;-3.5512;1.4769;0.0000;-0.0291;0.0218
534;-3.2440;1.4769;0.0000;-0.0303;0.0238
535;-2.9342;1.4769;0.0000;-0.0313;0.0240
536;-2.6231;1.4769;0.0000;-0.0230;0.0152
537;-2.3115;1.4769;0.0000;-0.0192;0.0133
538;-1.9998;1.4768;0.0000;-0.0194;0.0162
539;-1.6880;1.4767;0.0000;-0.0134;0.0083
540;-1.3760;1.4767;0.0000;-0.0214;0.0085
541;-1.0642;1.4766;0.0000;-0.0140;0.0210
542;-0.7523;1.4766;0.0000;0.0069;0.0160
543;-0.4403;1.4765;0.0000;0.0054;0.0009
544;-0.1283;1.4765;0.0000;0.0054;-0.0010
545;0.1836;1.4765;0.0000;-0.0040;-0.0075
546;0.4955;1.4764;0.0000;-0.0209;-0.0213
547;0.8074;1.4764;0.0000;-0.0230;-0.0149
548;1.1192;1.4763;0.0000;-0.0216;-0.0024
549;1.4311;1.4761;0.0000;-0.0157;-0.0077
550;1.7430;1.4761;0.0000;-0.0193;-0.0137
551;2.0547;1.4760;0.0000;-0.0256;-0.0093
552;2.3657;1.4756;0.0000;-0.0217;0.0051
553;2.6746;1.4745;0.0000;-0.0163;0.0139
554;2.9780;1.4725;0.0000;-0.0181;0.0063
555;3.2730;1.4733;0.0000;-0.0168;0.0030
556;3.5649;1.4916;0.0000;-0.0177;0.0069
557;-4.3059;1.1947;0.0000;-0.0288;0.0208
558;-4.0056;1.2045;0.0000;-0.0291;0.0123
559;-3.7041;1.2061;0.0000;-0.0307;0.0078
560;-3.3982;1.2065;0.0000;-0.0293;0.0002
561;-3.0892;1.2067;0.0000;-0.0331;0.0007
562;-2.7787;1.2067;0.0000;-0.0319;0.0075
563;-2.4673;1.2067;0.0000;-0.0240;0.0088
564;-2.1557;1.2067;0.0000;-0.0152;0.0035
565;-1.8438;1.2066;0.0000;-0.0105;-0.0016
566;-1.5319;1.2066;0.0000;-0.0179;-0.0051
567;-1.2201;1.2065;0.0000;-0.0230;-0.0038
568;-0.9082;1.2064;0.0000;-0.0063;0.0005
569;-0.5963;1.2063;0.0000;-0.0025;0.0000
570;-0.2843;1.2063;0.0000;0.0012;0.0009
571;0.0276;1.2063;0.0000;0.0047;0.0004
572;0.3396;1.2064;0.0000;-0.0024;-0.0129
573;0.6515;1.2063;0.0000;-0.0155;-0.0158
574;0.9634;1.2062;0.0000;-0.0266;-0.0115
575;1.2752;1.2061;0.0000;-0.0233;-0.0109
576;1.5871;1.2060;0.0000;-0.0138;-0.0029
577;1.8989;1.2059;0.0000;-0.0225;-0.0037
578;2.2104;1.2057;0.0000;-0.0368;-0.0080
579;2.5208;1.2049;0.0000;-0.0217;-0.0053
580;2.8275;1.2029;0.0000;-0.0108;-0.0034
581;3.1245;1.2007;0.0000;-0.0113;-0.0001
582;3.4007;1.2066;0.0000;-0.0230;0.0026
583;3.6389;1.2184;0.0000;-0.0270;0.0003
584;-4.4276;0.9273;0.0000;-0.0308;0.0211
585;-4.1464;0.9338;0.0000;-0.0253;0.0133
586;-3.8531;0.9353;0.0000;-0.0275;-0.0045
587;-3.5510;0.9361;0.0000;-0.0284;-0.0074
588;-3.2438;0.9365;0.0000;-0.0297;-0.0085
589;-2.9340;0.9366;0.0000;-0.0316;-0.0061
590;-2.6230;0.9366;0.0000;-0.0326;0.0036
591;-2.3115;0.9366;0.0000;-0.0256;0.0060
592;-1.9997;0.9365;0.0000;-0.0143;-0.0001
593;-1.6879;0.9365;0.0000;-0.0117;0.0009
594;-1.3760;0.9364;0.0000;-0.0196;-0.0028
595;-1.0641;0.9363;0.0000;-0.0116;-0.0132
596;-0.7522;0.9362;0.0000;-0.0063;-0.0127
597;-0.4403;0.9362;0.0000;-0.0047;-0.0090
598;-0.1284;0.9362;0.0000;-0.0019;-0.0023
599;0.1836;0.9362;0.0000;0.0069;0.0073
600;0.4956;0.9362;0.0000;0.0028;0.0065
601;0.8075;0.9361;0.0000;-0.0232;-0.0075
602;1.1193;0.9360;0.0000;-0.0289;-0.0181
603;1.4312;0.9359;0.0000;-0.0197;-0.0132
604;1.7430;0.9358;0.0000;-0.0075;-0.0073
605;2.0549;0.9357;0.0000;-0.0279;-0.0061
606;2.3662;0.9352;0.0000;-0.0352;-0.0036
607;2.6766;0.9336;0.0000;-0.0179;-0.0027
608;2.9840;0.9301;0.0000;-0.0131;0.0000
609;3.2849;0.9273;0.0000;-0.0185;0.0011
610;3.5740;0.9362;0.0000;-0.0379;-0.0004
611;-4.3063;0.6688;0.0000;-0.0289;0.0003
612;-4.0057;0.6651;0.0000;-0.0294;-0.0062
613;-3.7040;0.6655;0.0000;-0.0318;-0.0031
614;-3.3981;0.6661;0.0000;-0.0318;0.0054
615;-3.0892;0.6664;0.0000;-0.0295;0.0077
616;-2.7786;0.6664;0.0000;-0.0334;0.0083
617;-2.4673;0.6664;0.0000;-0.0314;0.0070
618;-2.1556;0.6664;0.0000;-0.0216;0.0001
619;-1.8438;0.6663;0.0000;-0.0221;-0.0026
620;-1.5320;0.6662;0.0000;-0.0239;0.0041
621;-1.2201;0.6662;0.0000;-0.0116;-0.0015
622;-0.9082;0.6662;0.0000;0.0016;-0.0101
623;-0.5962;0.6661;0.0000;0.0025;-0.0054
624;-0.2843;0.6661;0.0000;-0.0024;0.0023
625;0.0276;0.6660;0.0000;-0.0058;0.0093
626;0.3396;0.6660;0.0000;0.0038;0.0134
627;0.6515;0.6660;0.0000;-0.0089;0.0033
628;0.9634;0.6660;0.0000;-0.0196;-0.0073
629;1.2753;0.6659;0.0000;-0.0194;-0.0138
630;1.5872;0.6657;0.0000;-0.0139;-0.0160
631;1.8991;0.6657;0.0000;-0.0149;-0.0027
632;2.2109;0.6654;0.0000;-0.0299;-0.0005
633;2.5229;0.6646;0.0000;-0.0222;-0.0131
634;2.8358;0.6626;0.0000;-0.0218;-0.0142
635;3.1519;0.6599;0.0000;-0.0231;-0.0112
636;3.4779;0.6680;0.0000;-0.0352;-0.0123
637;-4.4018;0.4098;0.0000;-0.0288;-0.0140
638;-4.1422;0.3946;0.0000;-0.0295;-0.0177
639;-3.8527;0.3944;0.0000;-0.0325;-0.0143
640;-3.5510;0.3954;0.0000;-0.0354;-0.0070
641;-3.2438;0.3960;0.0000;-0.0376;0.0003
642;-2.9340;0.3962;0.0000;-0.0342;0.0006
643;-2.6230;0.3962;0.0000;-0.0348;-0.0024
644;-2.3114;0.3962;0.0000;-0.0224;-0.0051
645;-1.9997;0.3962;0.0000;-0.0189;-0.0074
646;-1.6879;0.3962;0.0000;-0.0353;-0.0058
647;-1.3761;0.3961;0.0000;-0.0204;-0.0012
648;-1.0641;0.3961;0.0000;0.0027;-0.0035
649;-0.7522;0.3960;0.0000;0.0049;-0.0025
650;-0.4402;0.3959;0.0000;0.0017;0.0095
651;-0.1283;0.3959;0.0000;-0.0057;0.0100
652;0.1836;0.3958;0.0000;-0.0037;0.0064
653;0.4955;0.3958;0.0000;-0.0082;0.0067
654;0.8075;0.3959;0.0000;-0.0104;0.0064
655;1.1194;0.3958;0.0000;-0.0098;0.0030
656;1.4313;0.3957;0.0000;-0.0177;-0.0074
657;1.7431;0.3956;0.0000;-0.0119;-0.0100
658;2.0551;0.3954;0.0000;-0.0258;-0.0065
659;2.3671;0.3952;0.0000;-0.0206;-0.0142
660;2.6798;0.3944;0.0000;-0.0221;-0.0272
661;2.9939;0.3931;0.0000;-0.0271;-0.0215
662;3.3092;0.3936;0.0000;-0.0307;-0.0001
663;3.6112;0.4135;0.0000;-0.0349;0.0059
664;-4.3268;0.1285;0.0000;-0.0213;-0.0195
665;-4.0141;0.1244;0.0000;-0.0376;-0.0122
666;-3.7070;0.1252;0.0000;-0.0398;-0.0146
667;-3.3990;0.1258;0.0000;-0.0350;-0.0106
668;-3.0894;0.1260;0.0000;-0.0309;-0.0105
669;-2.7786;0.1261;0.0000;-0.0380;-0.0156
670;-2.4672;0.1261;0.0000;-0.0394;-0.0109
671;-2.1556;0.1261;0.0000;-0.0172;-0.0037
672;-1.8437;0.1261;0.0000;-0.0203;0.0000
673;-1.5319;0.1260;0.0000;-0.0334;0.0035
674;-1.2201;0.1259;0.0000;-0.0119;0.0084
675;-0.9081;0.1259;0.0000;0.0015;0.0130
676;-0.5962;0.1258;0.0000;-0.0002;0.0158
677;-0.2842;0.1257;0.0000;-0.0033;0.0093
678;0.0277;0.1257;0.0000;0.0005;0.0012
679;0.3397;0.1257;0.0000;-0.0071;0.0062
680;0.6515;0.1257;0.0000;-0.0139;0.0181
681;0.9634;0.1257;0.0000;-0.0054;0.0175
682;1.2753;0.1256;0.0000;-0.0109;0.0090
683;1.5872;0.1255;0.0000;-0.0080;-0.0008
684;1.8992;0.1254;0.0000;-0.0242;-0.0148
685;2.2112;0.1253;0.0000;-0.0287;-0.0267
686;2.5239;0.1251;0.0000;-0.0140;-0.0295
687;2.8388;0.1248;0.0000;-0.0220;-0.0227
688;3.1586;0.1247;0.0000;-0.0260;-0.0106
689;3.4889;0.1234;0.0000;-0.0372;0.0042
690;-4.4058;-0.1489;0.0000;-0.0108;-0.0290
691;-4.1479;-0.1466;0.0000;-0.0312;-0.0173
692;-3.8551;-0.1444;0.0000;-0.0397;-0.0167
693;-3.5519;-0.1442;0.0000;-0.0397;-0.0189
694;-3.2440;-0.1440;0.0000;-0.0276;-0.0152
695;-2.9339;-0.1440;0.0000;-0.0306;-0.0169
696;-2.6229;-0.1440;0.0000;-0.0460;-0.0212
697;-2.3114;-0.1440;0.0000;-0.0367;-0.0120
698;-1.9996;-0.1441;0.0000;-0.0163;0.0050
699;-1.6878;-0.1441;0.0000;-0.0264;0.0069
700;-1.3759;-0.1443;0.0000;-0.0259;0.0032
701;-1.0641;-0.1443;0.0000;-0.0111;0.0105
702;-0.7521;-0.1444;0.0000;-0.0045;0.0099
703;-0.4402;-0.1444;0.0000;-0.0040;-0.0026
704;-0.1283;-0.1444;0.0000;-0.0010;-0.0021
705;0.1837;-0.1445;0.0000;0.0009;0.0061
706;0.4956;-0.1445;0.0000;-0.0118;0.0245
707;0.8075;-0.1446;0.0000;-0.0018;0.0364
708;1.1194;-0.1446;0.0000;-0.0028;0.0150
709;1.4313;-0.1446;0.0000;-0.0087;0.0003
710;1.7433;-0.1447;0.0000;-0.0147;0.0008
711;2.0552;-0.1447;0.0000;-0.0302;-0.0038
712;2.3675;-0.1447;0.0000;-0.0137;-0.0009
713;2.6805;-0.1446;0.0000;-0.0174;0.0112
714;2.9948;-0.1444;0.0000;-0.0226;0.0078
715;3.3086;-0.1448;0.0000;-0.0294;-0.0122
716;3.6103;-0.1686;0.0000;-0.0386;-0.0224
717;-4.3224;-0.4287;0.0000;-0.0275;-0.0270
718;-4.0113;-0.4142;0.0000;-0.0283;-0.0298
719;-3.7056;-0.4137;0.0000;-0.0362;-0.0252
720;-3.3985;-0.4139;0.0000;-0.0320;-0.0253
721;-3.0891;-0.4140;0.0000;-0.0251;-0.0298
722;-2.7784;-0.4140;0.0000;-0.0407;-0.0251
723;-2.4671;-0.4140;0.0000;-0.0450;-0.0155
724;-2.1555;-0.4142;0.0000;-0.0298;-0.0106
725;-1.8437;-0.4143;0.0000;-0.0220;-0.0075
726;-1.5318;-0.4143;0.0000;-0.0256;-0.0097
727;-1.2200;-0.4144;0.0000;-0.0252;-0.0103
728;-0.9081;-0.4145;0.0000;-0.0192;-0.0075
729;-0.5962;-0.4145;0.0000;-0.0098;-0.0144
730;-0.2843;-0.4146;0.0000;0.0008;-0.0167
731;0.0277;-0.4146;0.0000;0.0083;-0.0040
732;0.3397;-0.4147;0.0000;-0.0010;0.0071
733;0.6515;-0.4148;0.0000;-0.0066;0.0069
734;0.9635;-0.4148;0.0000;0.0015;0.0042
735;1.2754;-0.4147;0.0000;-0.0027;-0.0022
736;1.5873;-0.4148;0.0000;-0.0116;-0.0022
737;1.8993;-0.4148;0.0000;-0.0249;0.0090
738;2.2114;-0.4149;0.0000;-0.0160;0.0165
739;2.5241;-0.4148;0.0000;-0.0064;0.0149
740;2.8380;-0.4147;0.0000;-0.0230;0.0062
741;3.1544;-0.4153;0.0000;-0.0261;-0.0037
742;3.4761;-0.4189;0.0000;-0.0290;-0.0144
743;-4.3963;-0.7184;0.0000;-0.0322;-0.0233
744;-4.1361;-0.6844;0.0000;-0.0249;-0.0331
745;-3.8494;-0.6834;0.0000;-0.0203;-0.0301
746;-3.5495;-0.6839;0.0000;-0.0326;-0.0273
747;-3.2431;-0.6840;0.0000;-0.0312;-0.0358
748;-2.9335;-0.6840;0.0000;-0.0344;-0.0346
749;-2.6227;-0.6841;0.0000;-0.0437;-0.0209
750;-2.3112;-0.6842;0.0000;-0.0387;-0.0188
751;-1.9995;-0.6843;0.0000;-0.0319;-0.0273
752;-1.6877;-0.6844;0.0000;-0.0281;-0.0309
753;-1.3759;-0.6845;0.0000;-0.0219;-0.0251
754;-1.0640;-0.6845;0.0000;-0.0227;-0.0184
755;-0.7521;-0.6846;0.0000;-0.0185;-0.0158
756;-0.4402;-0.6846;0.0000;-0.0111;-0.0132
757;-0.1283;-0.6847;0.0000;-0.0018;-0.0057
758;0.1836;-0.6848;0.0000;0.0014;0.0048
759;0.4956;-0.6849;0.0000;0.0040;-0.0007
760;0.8075;-0.6849;0.0000;0.0074;-0.0095
761;1.1195;-0.6849;0.0000;0.0041;-0.0001
762;1.4314;-0.6849;0.0000;-0.0111;0.0047
763;1.7433;-0.6850;0.0000;-0.0307;0.0081
764;2.0552;-0.6851;0.0000;-0.0276;0.0164
765;2.3674;-0.6850;0.0000;0.0024;0.0033
766;2.6800;-0.6850;0.0000;0.0027;-0.0159
767;2.9924;-0.6857;0.0000;-0.0257;-0.0215
768;3.3009;-0.6901;0.0000;-0.0296;-0.0181
769;3.5878;-0.6736;0.0000;-0.0268;-0.0079
770;-4.2914;-0.9541;0.0000;-0.0275;-0.0250
771;-3.9984;-0.9547;0.0000;-0.0211;-0.0289
772;-3.7008;-0.9546;0.0000;-0.0256;-0.0360
773;-3.3966;-0.9544;0.0000;-0.0314;-0.0436
774;-3.0884;-0.9542;0.0000;-0.0310;-0.0427
775;-2.7781;-0.9542;0.0000;-0.0394;-0.0289
776;-2.4669;-0.9543;0.0000;-0.0458;-0.0201
777;-2.1553;-0.9544;0.0000;-0.0404;-0.0244
778;-1.8436;-0.9544;0.0000;-0.0292;-0.0265
779;-1.5317;-0.9545;0.0000;-0.0216;-0.0239
780;-1.2199;-0.9546;0.0000;-0.0178;-0.0207
781;-0.9080;-0.9547;0.0000;-0.0188;-0.0110
782;-0.5961;-0.9547;0.0000;-0.0181;0.0037
783;-0.2842;-0.9548;0.0000;-0.0094;0.0141
784;0.0277;-0.9549;0.0000;-0.0067;0.0115
785;0.3396;-0.9550;0.0000;-0.0039;0.0059
786;0.6516;-0.9551;0.0000;0.0059;0.0083
787;0.9635;-0.9551;0.0000;0.0055;0.0127
788;1.2755;-0.9550;0.0000;-0.0034;0.0218
789;1.5874;-0.9551;0.0000;-0.0270;0.0259
790;1.8993;-0.9552;0.0000;-0.0314;0.0150
791;2.2114;-0.9552;0.0000;-0.0140;0.0066
792;2.5242;-0.9550;0.0000;0.0052;0.0051
793;2.8391;-0.9550;0.0000;-0.0074;0.0007
794;3.1598;-0.9560;0.0000;-0.0231;-0.0088
795;3.4987;-0.9600;0.0000;-0.0209;-0.0097
796;-4.3951;-1.1881;0.0000;-0.0209;-0.0096
797;-4.1348;-1.2245;0.0000;-0.0273;-0.0158
798;-3.8484;-1.2262;0.0000;-0.0219;-0.0237
799;-3.5490;-1.2252;0.0000;-0.0211;-0.0334
800;-3.2427;-1.2245;0.0000;-0.0200;-0.0356
801;-2.9332;-1.2243;0.0000;-0.0281;-0.0276
802;-2.6224;-1.2244;0.0000;-0.0448;-0.0238
803;-2.3111;-1.2244;0.0000;-0.0526;-0.0206
804;-1.9994;-1.2245;0.0000;-0.0353;-0.0129
805;-1.6876;-1.2246;0.0000;-0.0212;-0.0032
806;-1.3757;-1.2246;0.0000;-0.0238;0.0010
807;-1.0639;-1.2247;0.0000;-0.0205;-0.0013
808;-0.7520;-1.2249;0.0000;-0.0153;0.0000
809;-0.4401;-1.2250;0.0000;-0.0128;0.0085
810;-0.1282;-1.2250;0.0000;-0.0101;0.0098
811;0.1837;-1.2251;0.0000;-0.0098;0.0049
812;0.4956;-1.2252;0.0000;-0.0095;0.0030
813;0.8075;-1.2252;0.0000;-0.0050;-0.0019
814;1.1195;-1.2252;0.0000;-0.0006;0.0012
815;1.4314;-1.2253;0.0000;-0.0146;0.0113
816;1.7433;-1.2254;0.0000;-0.0276;0.0134
817;2.0552;-1.2254;0.0000;-0.0173;0.0054
818;2.3674;-1.2253;0.0000;-0.0033;0.0019
819;2.6797;-1.2250;0.0000;-0.0057;0.0027
820;2.9916;-1.2246;0.0000;-0.0122;-0.0025
821;3.2995;-1.2246;0.0000;-0.0152;-0.0053
822;3.5836;-1.2470;0.0000;-0.0203;-0.0091
823;-4.3217;-1.4778;0.0000;-0.0180;-0.0066
824;-4.0104;-1.4952;0.0000;-0.0142;-0.0112
825;-3.7048;-1.4959;0.0000;-0.0121;-0.0136
826;-3.3978;-1.4950;0.0000;-0.0230;-0.0104
827;-3.0886;-1.4945;0.0000;-0.0280;-0.0065
828;-2.7780;-1.4944;0.0000;-0.0294;-0.0154
829;-2.4667;-1.4945;0.0000;-0.0404;-0.0326
830;-2.1551;-1.4946;0.0000;-0.0436;-0.0273
831;-1.8434;-1.4947;0.0000;-0.0340;-0.0085
832;-1.5316;-1.4948;0.0000;-0.0316;0.0041
833;-1.2197;-1.4949;0.0000;-0.0253;0.0087
834;-0.9079;-1.4950;0.0000;-0.0203;-0.0012
835;-0.5960;-1.4950;0.0000;-0.0131;-0.0125
836;-0.2841;-1.4952;0.0000;-0.0149;-0.0086
837;0.0278;-1.4952;0.0000;-0.0146;0.0016
838;0.3397;-1.4953;0.0000;-0.0078;0.0055
839;0.6516;-1.4954;0.0000;-0.0097;0.0027
840;0.9635;-1.4953;0.0000;-0.0049;-0.0016
841;1.2755;-1.4954;0.0000;-0.0067;-0.0057
842;1.5874;-1.4954;0.0000;-0.0248;-0.0021
843;1.8993;-1.4956;0.0000;-0.0225;0.0050
844;2.2113;-1.4955;0.0000;-0.0083;0.0016
845;2.5238;-1.4954;0.0000;-0.0056;-0.0049
846;2.8369;-1.4952;0.0000;-0.0093;-0.0074
847;3.1518;-1.4951;0.0000;-0.0084;-0.0099
848;3.4731;-1.5007;0.0000;-0.0163;-0.0121
849;-4.4052;-1.7576;0.0000;-0.0090;0.0036
850;-4.1476;-1.7612;0.0000;-0.0030;0.0014
851;-3.8546;-1.7652;0.0000;0.0041;-0.0050
852;-3.5512;-1.7652;0.0000;-0.0128;-0.0032
853;-3.2435;-1.7647;0.0000;-0.0319;0.0060
854;-2.9334;-1.7646;0.0000;-0.0288;-0.0015
855;-2.6224;-1.7645;0.0000;-0.0312;-0.0208
856;-2.3108;-1.7645;0.0000;-0.0323;-0.0256
857;-1.9991;-1.7647;0.0000;-0.0364;-0.0175
858;-1.6874;-1.7648;0.0000;-0.0465;-0.0099
859;-1.3756;-1.7650;0.0000;-0.0324;-0.0080
860;-1.0637;-1.7651;0.0000;-0.0209;-0.0090
861;-0.7519;-1.7651;0.0000;-0.0218;-0.0126
862;-0.4400;-1.7652;0.0000;-0.0169;-0.0165
863;-0.1281;-1.7653;0.0000;-0.0176;-0.0103
864;0.1838;-1.7654;0.0000;-0.0075;0.0010
865;0.4958;-1.7655;0.0000;-0.0082;0.0011
866;0.8077;-1.7655;0.0000;-0.0089;0.0057
867;1.1196;-1.7655;0.0000;-0.0039;0.0109
868;1.4315;-1.7656;0.0000;-0.0191;0.0022
869;1.7433;-1.7657;0.0000;-0.0325;-0.0035
870;2.0552;-1.7657;0.0000;-0.0221;-0.0039
871;2.3673;-1.7656;0.0000;-0.0075;-0.0026
872;2.6796;-1.7655;0.0000;-0.0061;-0.0006
873;2.9915;-1.7651;0.0000;-0.0067;0.0003
874;3.3015;-1.7637;0.0000;-0.0030;-0.0006
875;3.6077;-1.7586;0.0000;-0.0118;-0.0054
876;-4.3255;-2.0354;0.0000;-0.0014;0.0044
877;-4.0137;-2.0333;0.0000;0.0085;0.0008
878;-3.7065;-2.0347;0.0000;0.0072;-0.0018
879;-3.3984;-2.0348;0.0000;-0.0167;-0.0023
880;-3.0888;-2.0347;0.0000;-0.0282;-0.0020
881;-2.7780;-2.0346;0.0000;-0.0307;-0.0069
882;-2.4666;-2.0346;0.0000;-0.0313;-0.0077
883;-2.1549;-2.0347;0.0000;-0.0257;-0.0025
884;-1.8431;-2.0349;0.0000;-0.0406;-0.0092
885;-1.5314;-2.0350;0.0000;-0.0491;-0.0229
886;-1.2196;-2.0351;0.0000;-0.0265;-0.0260
887;-0.9077;-2.0352;0.0000;-0.0177;-0.0236
888;-0.5958;-2.0353;0.0000;-0.0270;-0.0133
889;-0.2840;-2.0354;0.0000;-0.0253;-0.0036
890;0.0279;-2.0355;0.0000;-0.0109;-0.0035
891;0.3398;-2.0356;0.0000;-0.0099;-0.0083
892;0.6517;-2.0356;0.0000;-0.0165;-0.0040
893;0.9636;-2.0357;0.0000;-0.0053;0.0089
894;1.2756;-2.0357;0.0000;-0.0071;0.0090
895;1.5875;-2.0357;0.0000;-0.0297;-0.0054
896;1.8993;-2.0358;0.0000;-0.0303;-0.0133
897;2.2113;-2.0358;0.0000;-0.0175;-0.0050
898;2.5236;-2.0358;0.0000;-0.0044;0.0022
899;2.8365;-2.0357;0.0000;0.0002;0.0033
900;3.1508;-2.0341;0.0000;-0.0027;0.0117
901;3.4713;-2.0225;0.0000;-0.0040;0.0092
902;-4.3999;-2.3164;0.0000;0.0030;0.0232
903;-4.1412;-2.3034;0.0000;0.0042;0.0197
904;-3.8523;-2.3040;0.0000;0.0076;0.0106
905;-3.5506;-2.3047;0.0000;-0.0055;0.0065
906;-3.2432;-2.3047;0.0000;-0.0144;0.0064
907;-2.9333;-2.3047;0.0000;-0.0180;0.0055
908;-2.6222;-2.3047;0.0000;-0.0299;0.0105
909;-2.3107;-2.3048;0.0000;-0.0322;0.0059
910;-1.9990;-2.3050;0.0000;-0.0306;-0.0073
911;-1.6872;-2.3050;0.0000;-0.0454;-0.0110
912;-1.3754;-2.3051;0.0000;-0.0461;-0.0060
913;-1.0636;-2.3052;0.0000;-0.0181;-0.0030
914;-0.7516;-2.3053;0.0000;-0.0181;0.0046
915;-0.4398;-2.3055;0.0000;-0.0351;0.0114
916;-0.1280;-2.3056;0.0000;-0.0138;0.0056
917;0.1840;-2.3057;0.0000;-0.0080;-0.0082
918;0.4958;-2.3058;0.0000;-0.0252;-0.0119
919;0.8077;-2.3058;0.0000;-0.0201;0.0024
920;1.1196;-2.3059;0.0000;-0.0094;0.0129
921;1.4315;-2.3059;0.0000;-0.0210;0.0102
922;1.7433;-2.3059;0.0000;-0.0327;-0.0018
923;2.0552;-2.3059;0.0000;-0.0215;-0.0111
924;2.3673;-2.3060;0.0000;-0.0062;-0.0111
925;2.6794;-2.3061;0.0000;0.0023;-0.0060
926;2.9906;-2.3063;0.0000;0.0011;-0.0003
927;3.2960;-2.3024;0.0000;-0.0029;0.0042
928;3.5785;-2.2724;0.0000;-0.0109;0.0069
929;-4.3050;-2.5768;0.0000;0.0067;0.0351
930;-4.0050;-2.5750;0.0000;0.0113;0.0317
931;-3.7034;-2.5750;0.0000;0.0017;0.0287
932;-3.3975;-2.5750;0.0000;-0.0071;0.0204
933;-3.0884;-2.5749;0.0000;-0.0055;0.0169
934;-2.7777;-2.5749;0.0000;-0.0177;0.0116
935;-2.4664;-2.5749;0.0000;-0.0342;0.0070
936;-2.1548;-2.5750;0.0000;-0.0334;-0.0001
937;-1.8430;-2.5751;0.0000;-0.0298;-0.0055
938;-1.5312;-2.5753;0.0000;-0.0516;-0.0033
939;-1.2195;-2.5754;0.0000;-0.0410;0.0020
940;-0.9076;-2.5755;0.0000;-0.0138;0.0121
941;-0.5957;-2.5756;0.0000;-0.0203;0.0085
942;-0.2838;-2.5757;0.0000;-0.0197;-0.0090
943;0.0281;-2.5758;0.0000;-0.0135;-0.0185
944;0.3400;-2.5758;0.0000;-0.0289;-0.0132
945;0.6518;-2.5759;0.0000;-0.0296;-0.0073
946;0.9637;-2.5760;0.0000;-0.0198;-0.0063
947;1.2755;-2.5761;0.0000;-0.0173;-0.0035
948;1.5874;-2.5761;0.0000;-0.0275;0.0013
949;1.8993;-2.5761;0.0000;-0.0252;0.0015
950;2.2114;-2.5761;0.0000;-0.0098;-0.0066
951;2.5242;-2.5761;0.0000;-0.0045;-0.0098
952;2.8390;-2.5764;0.0000;-0.0056;-0.0017
953;3.1593;-2.5757;0.0000;-0.0009;0.0024
954;3.4935;-2.5627;0.0000;0.0029;0.0021
955;-4.4247;-2.8354;0.0000;0.0264;0.0414
956;-4.1450;-2.8432;0.0000;0.0219;0.0459
957;-3.8521;-2.8453;0.0000;0.0124;0.0526
958;-3.5501;-2.8453;0.0000;0.0031;0.0470
959;-3.2429;-2.8451;0.0000;-0.0005;0.0314
960;-2.9331;-2.8451;0.0000;-0.0086;0.0192
961;-2.6220;-2.8451;0.0000;-0.0210;0.0098
962;-2.3105;-2.8451;0.0000;-0.0362;0.0092
963;-1.9988;-2.8452;0.0000;-0.0292;0.0155
964;-1.6870;-2.8453;0.0000;-0.0338;0.0111
965;-1.3752;-2.8454;0.0000;-0.0489;-0.0048
966;-1.0634;-2.8456;0.0000;-0.0272;-0.0079
967;-0.7515;-2.8457;0.0000;-0.0182;-0.0015
968;-0.4397;-2.8458;0.0000;-0.0244;-0.0051
969;-0.1278;-2.8458;0.0000;-0.0220;-0.0176
970;0.1841;-2.8459;0.0000;-0.0296;-0.0157
971;0.4959;-2.8460;0.0000;-0.0324;-0.0005
972;0.8077;-2.8461;0.0000;-0.0241;-0.0079
973;1.1196;-2.8462;0.0000;-0.0150;-0.0205
974;1.4315;-2.8462;0.0000;-0.0200;-0.0138
975;1.7434;-2.8462;0.0000;-0.0325;-0.0103
976;2.0553;-2.8462;0.0000;-0.0205;-0.0065
977;2.3676;-2.8462;0.0000;-0.0031;0.0054
978;2.6805;-2.8461;0.0000;-0.0040;0.0095
979;2.9943;-2.8458;0.0000;-0.0034;0.0033
980;3.3056;-2.8454;0.0000;0.0009;-0.0072
981;3.5866;-2.8456;0.0000;0.0084;-0.0113
982;-4.3035;-3.1035;0.0000;0.0370;0.0427
983;-4.0040;-3.1144;0.0000;0.0270;0.0503
984;-3.7028;-3.1159;0.0000;0.0154;0.0514
985;-3.3971;-3.1156;0.0000;0.0055;0.0478
986;-3.0882;-3.1154;0.0000;-0.0050;0.0369
987;-2.7776;-3.1153;0.0000;-0.0140;0.0326
988;-2.4663;-3.1153;0.0000;-0.0208;0.0291
989;-2.1546;-3.1154;0.0000;-0.0280;0.0215
990;-1.8428;-3.1155;0.0000;-0.0254;0.0204
991;-1.5310;-3.1156;0.0000;-0.0403;0.0132
992;-1.2192;-3.1156;0.0000;-0.0353;0.0025
993;-0.9074;-3.1158;0.0000;-0.0274;0.0027
994;-0.5955;-3.1159;0.0000;-0.0322;0.0085
995;-0.2837;-3.1159;0.0000;-0.0318;0.0059
996;0.0281;-3.1160;0.0000;-0.0305;0.0022
997;0.3400;-3.1161;0.0000;-0.0296;0.0066
998;0.6518;-3.1162;0.0000;-0.0273;0.0026
999;0.9637;-3.1162;0.0000;-0.0175;-0.0089
1000;1.2756;-3.1163;0.0000;-0.0133;-0.0102
1001;1.5875;-3.1163;0.0000;-0.0281;-0.0151
1002;1.8994;-3.1163;0.0000;-0.0302;-0.0261
1003;2.2115;-3.1163;0.0000;-0.0138;-0.0128
1004;2.5243;-3.1162;0.0000;-0.0025;0.0103
1005;2.8392;-3.1156;0.0000;-0.0006;0.0077
1006;3.1593;-3.1157;0.0000;-0.0052;-0.0095
1007;3.4926;-3.1284;0.0000;0.0006;-0.0117
1008;-4.3965;-3.3579;0.0000;0.0283;0.0414
1009;-4.1387;-3.3826;0.0000;0.0289;0.0443
1010;-3.8506;-3.3867;0.0000;0.0310;0.0413
1011;-3.5497;-3.3864;0.0000;0.0182;0.0360
1012;-3.2427;-3.3859;0.0000;0.0074;0.0325
1013;-2.9330;-3.3856;0.0000;-0.0063;0.0363
1014;-2.6220;-3.3856;0.0000;-0.0129;0.0402
1015;-2.3104;-3.3856;0.0000;-0.0163;0.0332
1016;-1.9986;-3.3856;0.0000;-0.0304;0.0155
1017;-1.6869;-3.3857;0.0000;-0.0379;-0.0008
1018;-1.3751;-3.3858;0.0000;-0.0296;0.0085
1019;-1.0632;-3.3859;0.0000;-0.0253;0.0185
1020;-0.7514;-3.3860;0.0000;-0.0359;0.0078
1021;-0.4395;-3.3861;0.0000;-0.0396;0.0046
1022;-0.1277;-3.3861;0.0000;-0.0374;0.0096
1023;0.1841;-3.3862;0.0000;-0.0313;0.0123
1024;0.4959;-3.3864;0.0000;-0.0326;0.0109
1025;0.8078;-3.3864;0.0000;-0.0237;0.0062
1026;1.1197;-3.3864;0.0000;-0.0160;-0.0011
1027;1.4316;-3.3864;0.0000;-0.0201;-0.0069
1028;1.7434;-3.3864;0.0000;-0.0310;-0.0116
1029;2.0553;-3.3863;0.0000;-0.0239;-0.0187
1030;2.3674;-3.3863;0.0000;-0.0066;-0.0180
1031;2.6795;-3.3860;0.0000;0.0029;-0.0098
1032;2.9904;-3.3856;0.0000;-0.0026;-0.0088
1033;3.2948;-3.3896;0.0000;-0.0073;-0.0110
1034;3.5734;-3.4198;0.0000;0.0021;-0.0077
1035;-4.3215;-3.6441;0.0000;0.0246;0.0671
1036;-4.0115;-3.6564;0.0000;0.0336;0.0581
1037;-3.7054;-3.6571;0.0000;0.0278;0.0495
1038;-3.3979;-3.6565;0.0000;0.0113;0.0548
1039;-3.0884;-3.6561;0.0000;0.0104;0.0562
1040;-2.7776;-3.6560;0.0000;-0.0020;0.0482
1041;-2.4662;-3.6559;0.0000;-0.0155;0.0510
1042;-2.1545;-3.6559;0.0000;-0.0306;0.0458
1043;-1.8428;-3.6559;0.0000;-0.0383;0.0240
1044;-1.5310;-3.6560;0.0000;-0.0299;0.0248
1045;-1.2191;-3.6561;0.0000;-0.0195;0.0345
1046;-0.9072;-3.6562;0.0000;-0.0329;0.0210
1047;-0.5954;-3.6563;0.0000;-0.0443;0.0072
1048;-0.2836;-3.6563;0.0000;-0.0359;0.0076
1049;0.0282;-3.6564;0.0000;-0.0281;0.0073
1050;0.3401;-3.6565;0.0000;-0.0350;0.0024
1051;0.6519;-3.6566;0.0000;-0.0335;0.0025
1052;0.9638;-3.6566;0.0000;-0.0236;0.0010
1053;1.2756;-3.6565;0.0000;-0.0277;-0.0051
1054;1.5875;-3.6566;0.0000;-0.0281;-0.0047
1055;1.8994;-3.6565;0.0000;-0.0190;0.0010
1056;2.2114;-3.6565;0.0000;-0.0070;-0.0085
1057;2.5236;-3.6564;0.0000;0.0016;-0.0274
1058;2.8361;-3.6564;0.0000;-0.0061;-0.0238
1059;3.1494;-3.6584;0.0000;-0.0110;-0.0117
1060;3.4683;-3.6707;0.0000;0.0013;-0.0113
1061;-4.4078;-3.9185;0.0000;0.0214;0.0617
1062;-4.1479;-3.9262;0.0000;0.0334;0.0580
1063;-3.8546;-3.9275;0.0000;0.0365;0.0550
1064;-3.5512;-3.9274;0.0000;0.0191;0.0684
1065;-3.2432;-3.9271;0.0000;0.0105;0.0826
1066;-2.9331;-3.9268;0.0000;0.0134;0.0801
1067;-2.6219;-3.9267;0.0000;-0.0089;0.0721
1068;-2.3103;-3.9267;0.0000;-0.0300;0.0675
1069;-1.9986;-3.9266;0.0000;-0.0309;0.0604
1070;-1.6868;-3.9265;0.0000;-0.0271;0.0543
1071;-1.3749;-3.9266;0.0000;-0.0284;0.0435
1072;-1.0631;-3.9267;0.0000;-0.0307;0.0289
1073;-0.7513;-3.9267;0.0000;-0.0435;0.0162
1074;-0.4395;-3.9267;0.0000;-0.0359;0.0072
1075;-0.1276;-3.9267;0.0000;-0.0192;0.0038
1076;0.1843;-3.9267;0.0000;-0.0325;-0.0084
1077;0.4961;-3.9268;0.0000;-0.0439;-0.0145
1078;0.8079;-3.9268;0.0000;-0.0290;-0.0050
1079;1.1198;-3.9267;0.0000;-0.0302;0.0004
1080;1.4316;-3.9267;0.0000;-0.0337;-0.0049
1081;1.7434;-3.9267;0.0000;-0.0217;-0.0084
1082;2.0554;-3.9266;0.0000;-0.0048;-0.0053
1083;2.3674;-3.9265;0.0000;0.0026;-0.0085
1084;2.6793;-3.9265;0.0000;-0.0049;-0.0152
1085;2.9902;-3.9271;0.0000;-0.0167;-0.0092
1086;3.2986;-3.9294;0.0000;-0.0124;-0.0060
1087;3.6030;-3.9345;0.0000;-0.0051;-0.0139
1088;-4.3236;-4.2043;0.0000;0.0246;0.0544
1089;-4.0122;-4.1988;0.0000;0.0421;0.0535
1090;-3.7056;-4.1990;0.0000;0.0332;0.0634
1091;-3.3978;-4.1989;0.0000;0.0115;0.0694
1092;-3.0882;-4.1986;0.0000;0.0146;0.0729
1093;-2.7772;-4.1984;0.0000;0.0072;0.0677
1094;-2.4658;-4.1982;0.0000;-0.0165;0.0634
1095;-2.1541;-4.1981;0.0000;-0.0284;0.0646
1096;-1.8423;-4.1979;0.0000;-0.0270;0.0615
1097;-1.5305;-4.1978;0.0000;-0.0336;0.0471
1098;-1.2186;-4.1977;0.0000;-0.0311;0.0297
1099;-0.9068;-4.1976;0.0000;-0.0341;0.0213
1100;-0.5950;-4.1975;0.0000;-0.0447;0.0184
1101;-0.2831;-4.1974;0.0000;-0.0274;0.0150
1102;0.0287;-4.1973;0.0000;-0.0245;0.0038
1103;0.3406;-4.1972;0.0000;-0.0378;-0.0039
1104;0.6524;-4.1972;0.0000;-0.0335;-0.0078
1105;0.9642;-4.1971;0.0000;-0.0289;-0.0134
1106;1.2761;-4.1970;0.0000;-0.0333;-0.0056
1107;1.5879;-4.1968;0.0000;-0.0331;0.0021
1108;1.8998;-4.1967;0.0000;-0.0145;-0.0132
1109;2.2118;-4.1966;0.0000;0.0034;-0.0213
1110;2.5239;-4.1965;0.0000;-0.0003;-0.0128
1111;2.8361;-4.1965;0.0000;-0.0147;-0.0121
1112;3.1492;-4.1965;0.0000;-0.0167;-0.0133
1113;3.4684;-4.1913;0.0000;-0.0164;-0.0192
1114;-4.3954;-4.4922;0.0000;0.0272;0.0556
1115;-4.1365;-4.4736;0.0000;0.0373;0.0605
1116;-3.8487;-4.4730;0.0000;0.0359;0.0674
1117;-3.5475;-4.4726;0.0000;0.0223;0.0638
1118;-3.2404;-4.4722;0.0000;0.0145;0.0509
1119;-2.9304;-4.4717;0.0000;0.0117;0.0412
1120;-2.6193;-4.4712;0.0000;-0.0002;0.0385
1121;-2.3076;-4.4709;0.0000;-0.0108;0.0493
1122;-1.9958;-4.4706;0.0000;-0.0237;0.0595
1123;-1.6840;-4.4702;0.0000;-0.0431;0.0512
1124;-1.3722;-4.4699;0.0000;-0.0385;0.0351
1125;-1.0604;-4.4696;0.0000;-0.0260;0.0262
1126;-0.7485;-4.4692;0.0000;-0.0499;0.0291
1127;-0.4368;-4.4690;0.0000;-0.0439;0.0250
1128;-0.1249;-4.4686;0.0000;-0.0235;0.0156
1129;0.1870;-4.4683;0.0000;-0.0361;0.0128
1130;0.4988;-4.4681;0.0000;-0.0333;0.0000
1131;0.8107;-4.4677;0.0000;-0.0256;-0.0086
1132;1.1226;-4.4674;0.0000;-0.0295;-0.0038
1133;1.4344;-4.4671;0.0000;-0.0315;0.0044
1134;1.7463;-4.4668;0.0000;-0.0256;0.0054
1135;2.0582;-4.4663;0.0000;-0.0035;-0.0095
1136;2.3702;-4.4661;0.0000;-0.0009;-0.0184
1137;2.6817;-4.4659;0.0000;-0.0114;-0.0195
1138;2.9915;-4.4657;0.0000;-0.0102;-0.0242
1139;3.2959;-4.4637;0.0000;-0.0033;-0.0235
1140;3.5773;-4.4394;0.0000;-0.0212;-0.0283
1141;-4.2938;-4.7530;0.0000;0.0322;0.0572
1142;-3.9940;-4.7517;0.0000;0.0262;0.0663
1143;-3.6920;-4.7495;0.0000;0.0251;0.0627
1144;-3.3856;-4.7482;0.0000;0.0207;0.0526
1145;-3.0763;-4.7471;0.0000;0.0135;0.0424
1146;-2.7655;-4.7462;0.0000;0.0032;0.0380
1147;-2.4539;-4.7455;0.0000;-0.0041;0.0349
1148;-2.1421;-4.7449;0.0000;-0.0136;0.0337
1149;-1.8302;-4.7441;0.0000;-0.0331;0.0378
1150;-1.5184;-4.7434;0.0000;-0.0411;0.0365
1151;-1.2065;-4.7427;0.0000;-0.0289;0.0309
1152;-0.8946;-4.7420;0.0000;-0.0423;0.0271
1153;-0.5828;-4.7414;0.0000;-0.0447;0.0200
1154;-0.2708;-4.7407;0.0000;-0.0217;0.0154
1155;0.0411;-4.7400;0.0000;-0.0385;0.0161
1156;0.3529;-4.7393;0.0000;-0.0470;0.0011
1157;0.6648;-4.7387;0.0000;-0.0275;-0.0056
1158;0.9768;-4.7380;0.0000;-0.0285;0.0008
1159;1.2887;-4.7374;0.0000;-0.0275;-0.0116
1160;1.6007;-4.7367;0.0000;-0.0202;-0.0135
1161;1.9126;-4.7360;0.0000;-0.0126;0.0045
1162;2.2248;-4.7352;0.0000;-0.0087;0.0090
1163;2.5370;-4.7345;0.0000;-0.0141;0.0030
1164;2.8501;-4.7336;0.0000;-0.0079;-0.0095
1165;3.1665;-4.7305;0.0000;0.0060;-0.0285
1166;3.4966;-4.7201;0.0000;-0.0128;-0.0256
1167;-4.3963;-5.0090;0.0000;0.0346;0.0358
1168;-4.1166;-5.0297;0.0000;0.0221;0.0566
1169;-3.8195;-5.0276;0.0000;0.0169;0.0565
1170;-3.5147;-5.0255;0.0000;0.0218;0.0518
1171;-3.2060;-5.0239;0.0000;0.0185;0.0501
1172;-2.8953;-5.0224;0.0000;0.0078;0.0535
1173;-2.5838;-5.0210;0.0000;-0.0061;0.0474
1174;-2.2719;-5.0199;0.0000;-0.0153;0.0255
1175;-1.9599;-5.0187;0.0000;-0.0243;0.0141
1176;-1.6479;-5.0174;0.0000;-0.0293;0.0193
1177;-1.3359;-5.0163;0.0000;-0.0259;0.0248
1178;-1.0238;-5.0151;0.0000;-0.0340;0.0216
1179;-0.7118;-5.0139;0.0000;-0.0390;0.0109
1180;-0.3997;-5.0127;0.0000;-0.0185;0.0080
1181;-0.0877;-5.0116;0.0000;-0.0277;0.0081
1182;0.2243;-5.0104;0.0000;-0.0464;0.0076
1183;0.5364;-5.0092;0.0000;-0.0386;0.0030
1184;0.8484;-5.0081;0.0000;-0.0397;-0.0049
1185;1.1604;-5.0068;0.0000;-0.0311;-0.0093
1186;1.4725;-5.0057;0.0000;-0.0178;-0.0161
1187;1.7846;-5.0046;0.0000;-0.0172;-0.0146
1188;2.0966;-5.0034;0.0000;-0.0146;-0.0001
1189;2.4086;-5.0022;0.0000;-0.0147;0.0001
1190;2.7199;-5.0009;0.0000;-0.0080;-0.0141
1191;3.0283;-4.9988;0.0000;0.0024;-0.0193
1192;3.3258;-4.9936;0.0000;-0.0011;-0.0165
1193;3.5855;-4.9898;0.0000;-0.0239;-0.0109
