# Units: length:mm angle:deg time:s strain:% 
# Stage: image-000017
stage;index;relative_time;date
"image-000017";18;17.0000;"2022-09-26T12:01:07.387"
# Name : Surface_xy
id;x;y;z;epsilon_x;epsilon_y
0;-4.5202;5.6596;0.0000;-0.3316;0.8205
1;-4.2090;5.6596;0.0000;-0.3010;0.8144
2;-3.8975;5.6598;0.0000;-0.2737;0.9250
3;-3.5860;5.6598;0.0000;-0.2484;0.9503
4;-3.2744;5.6599;0.0000;-0.2660;0.9134
5;-2.9630;5.6601;0.0000;-0.3201;0.9080
6;-2.6518;5.6601;0.0000;-0.2983;0.9050
7;-2.3403;5.6602;0.0000;-0.2640;0.8967
8;-2.0288;5.6602;0.0000;-0.2626;0.8813
9;-1.7172;5.6603;0.0000;-0.2368;0.8842
10;-1.4056;5.6603;0.0000;-0.2553;0.9056
11;-1.0941;5.6603;0.0000;-0.2779;0.9444
12;-0.7827;5.6601;0.0000;-0.2755;0.9516
13;-0.4712;5.6602;0.0000;-0.2463;0.9425
14;-0.1597;5.6602;0.0000;-0.2609;0.9247
15;0.1519;5.6602;0.0000;-0.2715;0.9167
16;0.4634;5.6600;0.0000;-0.2492;0.9439
17;0.7750;5.6598;0.0000;-0.2464;0.9584
18;1.0866;5.6597;0.0000;-0.2524;0.9739
19;1.3980;5.6596;0.0000;-0.2772;0.9783
20;1.7094;5.6593;0.0000;-0.2614;0.8966
21;2.0210;5.6593;0.0000;-0.2644;0.8790
22;2.3324;5.6594;0.0000;-0.2448;0.9389
23;2.6441;5.6594;0.0000;-0.2367;0.9224
24;2.9556;5.6594;0.0000;-0.2949;0.8931
25;3.2669;5.6595;0.0000;-0.3155;0.9140
26;3.5782;5.6596;0.0000;-0.3169;0.9092
27;3.8264;5.5497;0.0000;-0.3348;0.9117
28;3.8251;5.2345;0.0000;-0.3442;0.9031
29;3.8237;4.9194;0.0000;-0.3393;0.8761
30;3.8224;4.6043;0.0000;-0.3441;0.9380
31;3.8210;4.2889;0.0000;-0.3692;0.9758
32;3.8198;3.9736;0.0000;-0.3651;0.9410
33;3.8187;3.6584;0.0000;-0.3457;0.9395
34;3.8176;3.3431;0.0000;-0.3297;0.9603
35;3.8166;3.0278;0.0000;-0.3205;0.9452
36;3.8155;2.7126;0.0000;-0.3398;0.9137
37;3.8146;2.3975;0.0000;-0.3432;0.8938
38;3.8137;2.0823;0.0000;-0.3565;0.9551
39;3.8128;1.7668;0.0000;-0.3707;1.0330
40;3.8120;1.4514;0.0000;-0.3442;0.9720
41;3.8112;1.1361;0.0000;-0.3027;0.8925
42;3.8104;0.8212;0.0000;-0.3402;0.8325
43;3.8097;0.5063;0.0000;-0.3517;0.8051
44;3.8091;0.1915;0.0000;-0.3033;0.8605
45;3.8083;-0.1237;0.0000;-0.3296;0.9284
46;3.8072;-0.4389;0.0000;-0.3890;0.9214
47;3.8065;-0.7541;0.0000;-0.3371;0.9272
48;3.8057;-1.0693;0.0000;-0.3388;0.9939
49;3.8048;-1.3849;0.0000;-0.3666;1.0541
50;3.8039;-1.7005;0.0000;-0.3844;1.0234
51;3.8030;-2.0160;0.0000;-0.3086;1.0051
52;3.8022;-2.3314;0.0000;-0.2936;0.9605
53;3.8013;-2.6465;0.0000;-0.2846;0.8651
54;3.8004;-2.9615;0.0000;-0.2857;0.8224
55;3.7995;-3.2763;0.0000;-0.2912;0.8311
56;3.7986;-3.5913;0.0000;-0.2863;0.8343
57;3.7977;-3.9062;0.0000;-0.2746;0.8134
58;3.7968;-4.2210;0.0000;-0.2540;0.8155
59;3.7959;-4.5359;0.0000;-0.2519;0.8550
60;3.7948;-4.8509;0.0000;-0.3613;0.8664
61;3.7940;-5.1659;0.0000;-0.3603;0.8642
62;3.7933;-5.4809;0.0000;-0.3391;0.8616
63;3.5287;-5.5541;0.0000;-0.3204;0.8899
64;3.2173;-5.5562;0.0000;-0.2914;0.9062
65;2.9059;-5.5580;0.0000;-0.2909;0.8386
66;2.5944;-5.5598;0.0000;-0.2806;0.8297
67;2.2830;-5.5617;0.0000;-0.2637;0.8713
68;1.9715;-5.5635;0.0000;-0.2586;0.8437
69;1.6599;-5.5652;0.0000;-0.2183;0.8074
70;1.3482;-5.5671;0.0000;-0.1919;0.8578
71;1.0365;-5.5688;0.0000;-0.2372;0.8543
72;0.7251;-5.5705;0.0000;-0.2867;0.8121
73;0.4137;-5.5724;0.0000;-0.2570;0.8631
74;0.1021;-5.5740;0.0000;-0.2393;0.8567
75;-0.2094;-5.5757;0.0000;-0.2631;0.8180
76;-0.5209;-5.5775;0.0000;-0.2726;0.8500
77;-0.8324;-5.5792;0.0000;-0.2754;0.8300
78;-1.1438;-5.5807;0.0000;-0.2824;0.7464
79;-1.4552;-5.5823;0.0000;-0.3050;0.7367
80;-1.7665;-5.5839;0.0000;-0.2883;0.7814
81;-2.0781;-5.5856;0.0000;-0.2697;0.8135
82;-2.3895;-5.5874;0.0000;-0.2873;0.8505
83;-2.7009;-5.5890;0.0000;-0.3192;0.8510
84;-3.0122;-5.5905;0.0000;-0.3108;0.8166
85;-3.3236;-5.5921;0.0000;-0.2846;0.8287
86;-3.6350;-5.5937;0.0000;-0.2712;0.8183
87;-3.9464;-5.5951;0.0000;-0.2751;0.8147
88;-4.2578;-5.5967;0.0000;-0.2937;0.8333
89;-4.5681;-5.5744;0.0000;-0.3114;0.8317
90;-4.6182;-5.3049;0.0000;-0.3385;0.7878
91;-4.6183;-4.9902;0.0000;-0.3164;0.7774
92;-4.6185;-4.6755;0.0000;-0.2937;0.7635
93;-4.6187;-4.3608;0.0000;-0.2942;0.7843
94;-4.6190;-4.0460;0.0000;-0.2782;0.8807
95;-4.6195;-3.7306;0.0000;-0.2690;0.9626
96;-4.6197;-3.4154;0.0000;-0.3039;0.9039
97;-4.6200;-3.1004;0.0000;-0.2853;0.8401
98;-4.6204;-2.7855;0.0000;-0.2725;0.8490
99;-4.6208;-2.4704;0.0000;-0.3405;0.9927
100;-4.6211;-2.1547;0.0000;-0.3444;1.0540
101;-4.6214;-1.8392;0.0000;-0.3099;1.0249
102;-4.6216;-1.5237;0.0000;-0.3312;1.0407
103;-4.6218;-1.2080;0.0000;-0.3647;0.9864
104;-4.6221;-0.8929;0.0000;-0.3393;0.8537
105;-4.6224;-0.5781;0.0000;-0.3178;0.8110
106;-4.6228;-0.2631;0.0000;-0.2662;0.9130
107;-4.6228;0.0522;0.0000;-0.3179;0.9812
108;-4.6230;0.3677;0.0000;-0.3574;0.9745
109;-4.6231;0.6830;0.0000;-0.3368;0.9876
110;-4.6233;0.9985;0.0000;-0.3391;1.0245
111;-4.6234;1.3140;0.0000;-0.3564;1.0261
112;-4.6235;1.6295;0.0000;-0.3486;1.0424
113;-4.6235;1.9452;0.0000;-0.3799;1.0527
114;-4.6236;2.2607;0.0000;-0.3668;0.9602
115;-4.6237;2.5758;0.0000;-0.3288;0.9496
116;-4.6237;2.8913;0.0000;-0.3463;1.0891
117;-4.6238;3.2072;0.0000;-0.3824;1.1482
118;-4.6242;3.5230;0.0000;-0.3462;1.0960
119;-4.6247;3.8387;0.0000;-0.3402;1.0429
120;-4.6250;4.1542;0.0000;-0.3730;0.9739
121;-4.6256;4.4694;0.0000;-0.3319;0.9620
122;-4.6261;4.7849;0.0000;-0.3301;1.0636
123;-4.6265;5.1006;0.0000;-0.3701;1.0216
124;-4.6270;5.4159;0.0000;-0.3287;0.9220
125;-4.3294;5.3810;0.0000;-0.3127;0.8919
126;-4.0278;5.3768;0.0000;-0.2871;0.9101
127;-3.7227;5.3739;0.0000;-0.2653;0.9465
128;-3.4144;5.3730;0.0000;-0.2515;0.9565
129;-3.1044;5.3728;0.0000;-0.2869;0.9568
130;-2.7938;5.3727;0.0000;-0.3201;0.9475
131;-2.4828;5.3726;0.0000;-0.2726;0.9158
132;-2.1716;5.3726;0.0000;-0.2667;0.8937
133;-1.8604;5.3727;0.0000;-0.2649;0.9010
134;-1.5490;5.3726;0.0000;-0.2596;0.9184
135;-1.2377;5.3724;0.0000;-0.2775;0.9397
136;-0.9265;5.3721;0.0000;-0.2772;0.9541
137;-0.6153;5.3720;0.0000;-0.2545;0.9539
138;-0.3039;5.3721;0.0000;-0.2614;0.9527
139;0.0073;5.3720;0.0000;-0.3089;0.9627
140;0.3184;5.3718;0.0000;-0.2947;0.9734
141;0.6297;5.3715;0.0000;-0.2644;0.9595
142;0.9410;5.3711;0.0000;-0.2423;0.9441
143;1.2524;5.3709;0.0000;-0.2518;0.9517
144;1.5637;5.3708;0.0000;-0.2659;0.9344
145;1.8750;5.3708;0.0000;-0.2600;0.8904
146;2.1861;5.3707;0.0000;-0.2581;0.8898
147;2.4965;5.3707;0.0000;-0.2378;0.9093
148;2.8039;5.3712;0.0000;-0.2695;0.8971
149;3.1027;5.3721;0.0000;-0.3045;0.8958
150;3.3826;5.3744;0.0000;-0.3094;0.9085
151;3.6242;5.3664;0.0000;-0.3267;0.9101
152;-4.4257;5.0964;0.0000;-0.3278;1.0374
153;-4.1525;5.0947;0.0000;-0.2976;1.0267
154;-3.8605;5.0900;0.0000;-0.2804;0.9902
155;-3.5583;5.0883;0.0000;-0.2656;0.9887
156;-3.2509;5.0878;0.0000;-0.2633;1.0001
157;-2.9412;5.0876;0.0000;-0.2944;0.9917
158;-2.6308;5.0876;0.0000;-0.2958;0.9674
159;-2.3199;5.0877;0.0000;-0.2604;0.9570
160;-2.0087;5.0877;0.0000;-0.2918;0.9808
161;-1.6977;5.0875;0.0000;-0.2954;0.9903
162;-1.3866;5.0873;0.0000;-0.2889;0.9915
163;-1.0755;5.0869;0.0000;-0.2710;0.9898
164;-0.7643;5.0867;0.0000;-0.2571;0.9738
165;-0.4531;5.0866;0.0000;-0.2614;0.9851
166;-0.1419;5.0865;0.0000;-0.3163;1.0028
167;0.1689;5.0862;0.0000;-0.3544;0.9955
168;0.4798;5.0859;0.0000;-0.3040;0.9721
169;0.7909;5.0857;0.0000;-0.2577;0.9338
170;1.1022;5.0854;0.0000;-0.2345;0.9067
171;1.4135;5.0851;0.0000;-0.2612;0.9013
172;1.7246;5.0850;0.0000;-0.2700;0.8984
173;2.0357;5.0851;0.0000;-0.2548;0.8923
174;2.3465;5.0848;0.0000;-0.2508;0.8767
175;2.6556;5.0847;0.0000;-0.2650;0.8729
176;2.9601;5.0851;0.0000;-0.2924;0.8752
177;3.2570;5.0853;0.0000;-0.2949;0.8665
178;3.5482;5.0869;0.0000;-0.3151;0.8727
179;-4.3070;4.8193;0.0000;-0.3235;1.0767
180;-4.0083;4.8095;0.0000;-0.2987;1.0561
181;-3.7072;4.8067;0.0000;-0.2777;1.0189
182;-3.4016;4.8060;0.0000;-0.2748;0.9846
183;-3.0930;4.8060;0.0000;-0.2732;0.9710
184;-2.7830;4.8060;0.0000;-0.2782;0.9826
185;-2.4723;4.8061;0.0000;-0.2639;1.0253
186;-2.1613;4.8059;0.0000;-0.2939;1.0768
187;-1.8505;4.8057;0.0000;-0.3307;1.0891
188;-1.5395;4.8055;0.0000;-0.3174;1.0643
189;-1.2285;4.8051;0.0000;-0.2770;1.0257
190;-0.9173;4.8049;0.0000;-0.2618;0.9881
191;-0.6062;4.8047;0.0000;-0.2858;0.9721
192;-0.2952;4.8045;0.0000;-0.3002;0.9961
193;0.0158;4.8043;0.0000;-0.3335;1.0058
194;0.3266;4.8041;0.0000;-0.3319;0.9759
195;0.6376;4.8038;0.0000;-0.2761;0.9636
196;0.9488;4.8036;0.0000;-0.2431;0.9526
197;1.2601;4.8034;0.0000;-0.2572;0.9260
198;1.5711;4.8031;0.0000;-0.2737;0.9129
199;1.8822;4.8031;0.0000;-0.2618;0.9118
200;2.1932;4.8029;0.0000;-0.2524;0.8946
201;2.5029;4.8027;0.0000;-0.2807;0.8797
202;2.8088;4.8026;0.0000;-0.3023;0.8946
203;3.1050;4.8026;0.0000;-0.3031;0.8907
204;3.3822;4.8001;0.0000;-0.2910;0.8753
205;3.6209;4.8007;0.0000;-0.3190;0.8833
206;-4.3996;4.5585;0.0000;-0.3282;0.9876
207;-4.1409;4.5323;0.0000;-0.3257;0.9954
208;-3.8532;4.5276;0.0000;-0.3148;0.9910
209;-3.5527;4.5273;0.0000;-0.2901;0.9646
210;-3.2462;4.5275;0.0000;-0.2922;0.9671
211;-2.9371;4.5276;0.0000;-0.2811;0.9933
212;-2.6267;4.5275;0.0000;-0.2613;1.0382
213;-2.3159;4.5272;0.0000;-0.2776;1.0779
214;-2.0050;4.5269;0.0000;-0.3137;1.0906
215;-1.6940;4.5267;0.0000;-0.3268;1.0981
216;-1.3832;4.5266;0.0000;-0.3093;1.0683
217;-1.0721;4.5264;0.0000;-0.2759;1.0175
218;-0.7611;4.5263;0.0000;-0.3099;1.0018
219;-0.4501;4.5261;0.0000;-0.3156;0.9955
220;-0.1392;4.5257;0.0000;-0.2870;0.9893
221;0.1720;4.5254;0.0000;-0.3014;0.9948
222;0.4829;4.5253;0.0000;-0.3044;0.9895
223;0.7939;4.5250;0.0000;-0.2872;0.9775
224;1.1050;4.5248;0.0000;-0.2664;0.9748
225;1.4161;4.5245;0.0000;-0.2597;0.9620
226;1.7273;4.5244;0.0000;-0.2651;0.9408
227;2.0383;4.5243;0.0000;-0.2595;0.9247
228;2.3487;4.5242;0.0000;-0.2849;0.9188
229;2.6570;4.5238;0.0000;-0.3090;0.9214
230;2.9600;4.5238;0.0000;-0.3039;0.9219
231;3.2547;4.5235;0.0000;-0.2967;0.9303
232;3.5464;4.5119;0.0000;-0.3276;0.9483
233;-4.3241;4.2657;0.0000;-0.3384;0.9555
234;-4.0134;4.2524;0.0000;-0.3364;0.9444
235;-3.7077;4.2510;0.0000;-0.3160;0.9462
236;-3.4006;4.2512;0.0000;-0.3091;0.9711
237;-3.0918;4.2514;0.0000;-0.3216;0.9956
238;-2.7819;4.2513;0.0000;-0.3025;1.0111
239;-2.4713;4.2510;0.0000;-0.2785;1.0206
240;-2.1604;4.2507;0.0000;-0.2857;1.0199
241;-1.8494;4.2504;0.0000;-0.3063;1.0297
242;-1.5385;4.2502;0.0000;-0.3285;1.0521
243;-1.2275;4.2501;0.0000;-0.2935;1.0539
244;-0.9164;4.2500;0.0000;-0.3003;1.0396
245;-0.6056;4.2498;0.0000;-0.3282;1.0270
246;-0.2946;4.2496;0.0000;-0.2899;0.9981
247;0.0165;4.2494;0.0000;-0.2704;0.9729
248;0.3276;4.2491;0.0000;-0.3010;0.9774
249;0.6386;4.2489;0.0000;-0.3197;0.9692
250;0.9495;4.2487;0.0000;-0.3026;0.9506
251;1.2605;4.2483;0.0000;-0.2622;0.9500
252;1.5717;4.2482;0.0000;-0.2540;0.9409
253;1.8828;4.2482;0.0000;-0.2669;0.9222
254;2.1935;4.2480;0.0000;-0.2747;0.9244
255;2.5027;4.2477;0.0000;-0.3083;0.9328
256;2.8072;4.2474;0.0000;-0.2964;0.9330
257;3.0999;4.2477;0.0000;-0.2924;0.9323
258;3.3710;4.2476;0.0000;-0.3189;0.9458
259;3.6100;4.2173;0.0000;-0.3582;0.9677
260;-4.4086;3.9805;0.0000;-0.3421;1.0146
261;-4.1494;3.9795;0.0000;-0.3281;1.0079
262;-3.8565;3.9771;0.0000;-0.3320;1.0104
263;-3.5534;3.9767;0.0000;-0.3267;1.0201
264;-3.2462;3.9768;0.0000;-0.3360;1.0298
265;-2.9368;3.9767;0.0000;-0.3399;1.0391
266;-2.6267;3.9766;0.0000;-0.3283;1.0278
267;-2.3160;3.9763;0.0000;-0.2933;1.0079
268;-2.0049;3.9760;0.0000;-0.2775;1.0095
269;-1.6939;3.9756;0.0000;-0.3239;1.0191
270;-1.3831;3.9754;0.0000;-0.3311;1.0312
271;-1.0722;3.9753;0.0000;-0.2872;1.0491
272;-0.7611;3.9752;0.0000;-0.3040;1.0384
273;-0.4502;3.9751;0.0000;-0.3016;1.0151
274;-0.1391;3.9749;0.0000;-0.2758;1.0078
275;0.1720;3.9746;0.0000;-0.2964;1.0045
276;0.4829;3.9744;0.0000;-0.3232;0.9995
277;0.7938;3.9742;0.0000;-0.3245;0.9913
278;1.1048;3.9740;0.0000;-0.2889;0.9686
279;1.4159;3.9737;0.0000;-0.2676;0.9357
280;1.7270;3.9737;0.0000;-0.2682;0.9143
281;2.0379;3.9737;0.0000;-0.2606;0.9058
282;2.3482;3.9733;0.0000;-0.2795;0.9226
283;2.6555;3.9726;0.0000;-0.2964;0.9493
284;2.9552;3.9717;0.0000;-0.2950;0.9502
285;3.2412;3.9718;0.0000;-0.3132;0.9396
286;3.5150;3.9735;0.0000;-0.3452;0.9373
287;-4.3264;3.6994;0.0000;-0.3355;1.0754
288;-4.0146;3.7042;0.0000;-0.3243;1.0742
289;-3.7079;3.7033;0.0000;-0.3230;1.0792
290;-3.4005;3.7030;0.0000;-0.3395;1.1041
291;-3.0916;3.7029;0.0000;-0.3388;1.1207
292;-2.7817;3.7027;0.0000;-0.3592;1.1089
293;-2.4713;3.7026;0.0000;-0.3606;1.0754
294;-2.1607;3.7023;0.0000;-0.3077;1.0467
295;-1.8497;3.7020;0.0000;-0.2869;1.0365
296;-1.5387;3.7017;0.0000;-0.3232;1.0359
297;-1.2277;3.7015;0.0000;-0.3044;1.0416
298;-0.9167;3.7013;0.0000;-0.2775;1.0478
299;-0.6056;3.7012;0.0000;-0.2982;1.0607
300;-0.2946;3.7011;0.0000;-0.2948;1.0732
301;0.0164;3.7009;0.0000;-0.3015;1.0666
302;0.3274;3.7006;0.0000;-0.3089;1.0462
303;0.6384;3.7004;0.0000;-0.3165;1.0261
304;0.9493;3.7002;0.0000;-0.3134;1.0108
305;1.2602;3.7001;0.0000;-0.3050;0.9770
306;1.5712;3.7001;0.0000;-0.2897;0.9465
307;1.8822;3.7001;0.0000;-0.2572;0.9525
308;2.1930;3.6999;0.0000;-0.2564;0.9671
309;2.5022;3.6991;0.0000;-0.2818;0.9648
310;2.8062;3.6977;0.0000;-0.3055;0.9537
311;3.0980;3.6962;0.0000;-0.3116;0.9541
312;3.3683;3.6986;0.0000;-0.3093;0.9530
313;3.6082;3.7331;0.0000;-0.3437;0.9363
314;-4.4004;3.4127;0.0000;-0.3505;1.1275
315;-4.1417;3.4296;0.0000;-0.3321;1.1332
316;-3.8531;3.4304;0.0000;-0.3345;1.1298
317;-3.5521;3.4297;0.0000;-0.3394;1.1271
318;-3.2456;3.4293;0.0000;-0.3450;1.1190
319;-2.9365;3.4291;0.0000;-0.3437;1.1099
320;-2.6265;3.4291;0.0000;-0.3679;1.1098
321;-2.3160;3.4290;0.0000;-0.3513;1.1069
322;-2.0052;3.4287;0.0000;-0.3041;1.0815
323;-1.6942;3.4284;0.0000;-0.3049;1.0461
324;-1.3833;3.4282;0.0000;-0.3237;1.0296
325;-1.0723;3.4280;0.0000;-0.2904;1.0171
326;-0.7612;3.4279;0.0000;-0.2869;1.0283
327;-0.4502;3.4276;0.0000;-0.2938;1.0775
328;-0.1392;3.4274;0.0000;-0.3017;1.1014
329;0.1717;3.4272;0.0000;-0.3141;1.0752
330;0.4827;3.4271;0.0000;-0.3000;1.0373
331;0.7937;3.4270;0.0000;-0.3056;1.0208
332;1.1047;3.4269;0.0000;-0.3058;1.0027
333;1.4157;3.4269;0.0000;-0.3101;0.9954
334;1.7266;3.4269;0.0000;-0.2850;1.0263
335;2.0376;3.4267;0.0000;-0.2707;1.0558
336;2.3479;3.4262;0.0000;-0.2876;1.0475
337;2.6558;3.4251;0.0000;-0.3024;1.0211
338;2.9582;3.4234;0.0000;-0.3118;1.0145
339;3.2522;3.4237;0.0000;-0.2960;1.0068
340;3.5426;3.4419;0.0000;-0.3152;0.9738
341;-4.3056;3.1511;0.0000;-0.3452;1.1762
342;-4.0056;3.1555;0.0000;-0.3434;1.1975
343;-3.7046;3.1559;0.0000;-0.3611;1.1871
344;-3.3994;3.1560;0.0000;-0.3682;1.1485
345;-3.0914;3.1560;0.0000;-0.3474;1.1242
346;-2.7817;3.1558;0.0000;-0.3268;1.1302
347;-2.4712;3.1557;0.0000;-0.3381;1.1424
348;-2.1605;3.1554;0.0000;-0.3394;1.1429
349;-1.8497;3.1553;0.0000;-0.3209;1.1306
350;-1.5388;3.1552;0.0000;-0.3240;1.0882
351;-1.2279;3.1550;0.0000;-0.3180;1.0442
352;-0.9169;3.1549;0.0000;-0.2931;1.0429
353;-0.6059;3.1546;0.0000;-0.2886;1.0574
354;-0.2948;3.1542;0.0000;-0.2764;1.0538
355;0.0163;3.1540;0.0000;-0.3003;1.0512
356;0.3272;3.1540;0.0000;-0.2961;1.0529
357;0.6383;3.1539;0.0000;-0.2995;1.0442
358;0.9492;3.1538;0.0000;-0.3145;1.0327
359;1.2602;3.1538;0.0000;-0.3082;1.0375
360;1.5712;3.1537;0.0000;-0.3124;1.0826
361;1.8821;3.1535;0.0000;-0.2972;1.1156
362;2.1927;3.1532;0.0000;-0.3028;1.0994
363;2.5021;3.1525;0.0000;-0.3063;1.0791
364;2.8076;3.1513;0.0000;-0.3048;1.0540
365;3.1039;3.1503;0.0000;-0.2896;1.0216
366;3.3816;3.1549;0.0000;-0.2897;0.9874
367;3.6198;3.1599;0.0000;-0.3152;0.9653
368;-4.4265;2.8875;0.0000;-0.3383;1.0935
369;-4.1460;2.8832;0.0000;-0.3389;1.1222
370;-3.8532;2.8822;0.0000;-0.3607;1.1465
371;-3.5519;2.8824;0.0000;-0.3712;1.1402
372;-3.2456;2.8825;0.0000;-0.3645;1.1351
373;-2.9368;2.8825;0.0000;-0.3268;1.1547
374;-2.6266;2.8823;0.0000;-0.3149;1.1581
375;-2.3160;2.8822;0.0000;-0.3252;1.1336
376;-2.0052;2.8820;0.0000;-0.3342;1.1278
377;-1.6943;2.8818;0.0000;-0.3289;1.1429
378;-1.3834;2.8819;0.0000;-0.3218;1.1300
379;-1.0725;2.8818;0.0000;-0.3123;1.0992
380;-0.7615;2.8816;0.0000;-0.3029;1.0792
381;-0.4505;2.8813;0.0000;-0.2839;1.0431
382;-0.1394;2.8812;0.0000;-0.2742;1.0045
383;0.1717;2.8810;0.0000;-0.2779;1.0055
384;0.4827;2.8809;0.0000;-0.2842;1.0284
385;0.7938;2.8808;0.0000;-0.3043;1.0162
386;1.1048;2.8808;0.0000;-0.3069;1.0105
387;1.4158;2.8806;0.0000;-0.3203;1.0516
388;1.7266;2.8803;0.0000;-0.3298;1.0804
389;2.0374;2.8801;0.0000;-0.3119;1.0670
390;2.3477;2.8798;0.0000;-0.3046;1.0177
391;2.6561;2.8791;0.0000;-0.3050;0.9701
392;2.9599;2.8785;0.0000;-0.2946;0.9412
393;3.2567;2.8787;0.0000;-0.2889;0.9231
394;3.5476;2.8805;0.0000;-0.3154;0.9310
395;-4.3052;2.6194;0.0000;-0.3296;0.9577
396;-4.0054;2.6100;0.0000;-0.3442;0.9774
397;-3.7045;2.6089;0.0000;-0.3717;1.0133
398;-3.3996;2.6092;0.0000;-0.3599;1.0403
399;-3.0915;2.6093;0.0000;-0.3303;1.0598
400;-2.7818;2.6091;0.0000;-0.3229;1.0743
401;-2.4714;2.6090;0.0000;-0.3219;1.0690
402;-2.1607;2.6090;0.0000;-0.3233;1.0409
403;-1.8498;2.6088;0.0000;-0.3323;1.0300
404;-1.5390;2.6085;0.0000;-0.3193;1.0470
405;-1.2280;2.6086;0.0000;-0.3018;1.0459
406;-0.9170;2.6086;0.0000;-0.3089;1.0085
407;-0.6060;2.6084;0.0000;-0.3151;0.9666
408;-0.2951;2.6083;0.0000;-0.2877;0.9544
409;0.0160;2.6083;0.0000;-0.2558;0.9586
410;0.3273;2.6081;0.0000;-0.2631;0.9773
411;0.6383;2.6079;0.0000;-0.3034;1.0019
412;0.9492;2.6080;0.0000;-0.3185;1.0032
413;1.2601;2.6078;0.0000;-0.3148;0.9893
414;1.5711;2.6075;0.0000;-0.3115;0.9575
415;1.8820;2.6072;0.0000;-0.3155;0.9370
416;2.1926;2.6071;0.0000;-0.3006;0.9192
417;2.5021;2.6070;0.0000;-0.2878;0.8736
418;2.8075;2.6067;0.0000;-0.2979;0.8494
419;3.1031;2.6067;0.0000;-0.2972;0.8562
420;3.3793;2.6033;0.0000;-0.3131;0.8794
421;3.6152;2.5984;0.0000;-0.3355;0.8907
422;-4.3993;2.3619;0.0000;-0.3381;0.9052
423;-4.1409;2.3390;0.0000;-0.3385;0.9023
424;-3.8525;2.3357;0.0000;-0.3534;0.9180
425;-3.5521;2.3360;0.0000;-0.3516;0.9701
426;-3.2458;2.3363;0.0000;-0.3288;0.9875
427;-2.9369;2.3363;0.0000;-0.3306;0.9568
428;-2.6269;2.3361;0.0000;-0.3287;0.9393
429;-2.3162;2.3361;0.0000;-0.3162;0.9415
430;-2.0054;2.3361;0.0000;-0.3216;0.9382
431;-1.6945;2.3359;0.0000;-0.3200;0.9308
432;-1.3836;2.3358;0.0000;-0.2865;0.9351
433;-1.0724;2.3359;0.0000;-0.2843;0.9451
434;-0.7614;2.3359;0.0000;-0.3220;0.9357
435;-0.4506;2.3358;0.0000;-0.3245;0.9317
436;-0.1396;2.3357;0.0000;-0.2809;0.9558
437;0.1716;2.3354;0.0000;-0.2556;0.9829
438;0.4827;2.3351;0.0000;-0.2867;0.9898
439;0.7937;2.3350;0.0000;-0.3092;0.9925
440;1.1046;2.3350;0.0000;-0.3132;0.9842
441;1.4156;2.3350;0.0000;-0.2926;0.9414
442;1.7267;2.3349;0.0000;-0.2900;0.8859
443;2.0375;2.3347;0.0000;-0.3047;0.8481
444;2.3477;2.3347;0.0000;-0.2921;0.8334
445;2.6556;2.3345;0.0000;-0.2874;0.8361
446;2.9576;2.3345;0.0000;-0.2998;0.8529
447;3.2502;2.3338;0.0000;-0.3167;0.8758
448;3.5393;2.3174;0.0000;-0.3416;0.8930
449;-4.3245;2.0743;0.0000;-0.3598;0.9948
450;-4.0137;2.0640;0.0000;-0.3369;0.9602
451;-3.7077;2.0631;0.0000;-0.3233;0.9629
452;-3.4007;2.0634;0.0000;-0.3206;0.9690
453;-3.0920;2.0637;0.0000;-0.3367;0.9350
454;-2.7822;2.0637;0.0000;-0.3387;0.9055
455;-2.4717;2.0636;0.0000;-0.3116;0.9114
456;-2.1610;2.0636;0.0000;-0.3195;0.9364
457;-1.8501;2.0634;0.0000;-0.3080;0.9494
458;-1.5390;2.0632;0.0000;-0.2867;0.9658
459;-1.2279;2.0632;0.0000;-0.2721;0.9977
460;-0.9169;2.0632;0.0000;-0.2964;1.0303
461;-0.6059;2.0631;0.0000;-0.3297;1.0548
462;-0.2950;2.0630;0.0000;-0.3169;1.0524
463;0.0159;2.0627;0.0000;-0.2885;1.0367
464;0.3271;2.0624;0.0000;-0.2819;1.0181
465;0.6381;2.0623;0.0000;-0.2924;0.9880
466;0.9490;2.0623;0.0000;-0.2944;0.9732
467;1.2601;2.0623;0.0000;-0.2853;0.9673
468;1.5712;2.0623;0.0000;-0.2724;0.9435
469;1.8822;2.0623;0.0000;-0.2766;0.9243
470;2.1929;2.0623;0.0000;-0.2826;0.9285
471;2.5019;2.0622;0.0000;-0.3004;0.9457
472;2.8058;2.0618;0.0000;-0.3098;0.9595
473;3.0972;2.0616;0.0000;-0.3159;0.9760
474;3.3662;2.0611;0.0000;-0.3314;0.9827
475;3.6050;2.0249;0.0000;-0.3520;0.9867
476;-4.4089;1.7961;0.0000;-0.3596;1.0604
477;-4.1494;1.7916;0.0000;-0.3435;1.0414
478;-3.8565;1.7911;0.0000;-0.3235;1.0145
479;-3.5537;1.7908;0.0000;-0.3072;0.9897
480;-3.2464;1.7910;0.0000;-0.3163;0.9882
481;-2.9372;1.7911;0.0000;-0.3402;1.0009
482;-2.6271;1.7910;0.0000;-0.3198;1.0218
483;-2.3163;1.7908;0.0000;-0.3020;1.0439
484;-2.0055;1.7907;0.0000;-0.3028;1.0536
485;-1.6945;1.7904;0.0000;-0.3021;1.0696
486;-1.3835;1.7902;0.0000;-0.2974;1.0953
487;-1.0725;1.7901;0.0000;-0.2898;1.1146
488;-0.7615;1.7900;0.0000;-0.2956;1.1172
489;-0.4505;1.7898;0.0000;-0.3089;1.1118
490;-0.1395;1.7897;0.0000;-0.3196;1.0887
491;0.1714;1.7896;0.0000;-0.3084;1.0408
492;0.4824;1.7894;0.0000;-0.2805;0.9941
493;0.7935;1.7895;0.0000;-0.2693;0.9869
494;1.1046;1.7895;0.0000;-0.2739;1.0039
495;1.4157;1.7895;0.0000;-0.2724;0.9989
496;1.7268;1.7895;0.0000;-0.2585;1.0062
497;2.0378;1.7894;0.0000;-0.2507;1.0451
498;2.3480;1.7892;0.0000;-0.2954;1.0868
499;2.6550;1.7887;0.0000;-0.3290;1.1071
500;2.9543;1.7876;0.0000;-0.3260;1.0934
501;3.2392;1.7869;0.0000;-0.3278;1.0706
502;3.5094;1.7909;0.0000;-0.3460;1.0583
503;-4.3249;1.5099;0.0000;-0.3482;1.0419
504;-4.0140;1.5183;0.0000;-0.3291;1.0527
505;-3.7080;1.5184;0.0000;-0.3215;1.0353
506;-3.4010;1.5182;0.0000;-0.3122;1.0214
507;-3.0923;1.5181;0.0000;-0.3181;1.0507
508;-2.7824;1.5180;0.0000;-0.3330;1.0849
509;-2.4719;1.5177;0.0000;-0.3143;1.1072
510;-2.1611;1.5176;0.0000;-0.2804;1.1170
511;-1.8500;1.5174;0.0000;-0.2863;1.1039
512;-1.5390;1.5171;0.0000;-0.3206;1.0896
513;-1.2282;1.5169;0.0000;-0.3222;1.1004
514;-0.9172;1.5168;0.0000;-0.2947;1.0999
515;-0.6061;1.5168;0.0000;-0.2777;1.0705
516;-0.2951;1.5167;0.0000;-0.2933;1.0530
517;0.0159;1.5166;0.0000;-0.3053;1.0247
518;0.3269;1.5166;0.0000;-0.2894;0.9757
519;0.6379;1.5167;0.0000;-0.2663;0.9686
520;0.9491;1.5166;0.0000;-0.2595;0.9886
521;1.2603;1.5165;0.0000;-0.2589;0.9946
522;1.5714;1.5166;0.0000;-0.2661;1.0045
523;1.8824;1.5165;0.0000;-0.2610;1.0259
524;2.1931;1.5162;0.0000;-0.2790;1.0576
525;2.5021;1.5156;0.0000;-0.3205;1.0864
526;2.8061;1.5142;0.0000;-0.3275;1.0832
527;3.0985;1.5126;0.0000;-0.3271;1.0489
528;3.3707;1.5147;0.0000;-0.3369;1.0175
529;3.6120;1.5638;0.0000;-0.3494;1.0096
530;-4.3985;1.2188;0.0000;-0.3471;1.0418
531;-4.1411;1.2426;0.0000;-0.3285;1.0526
532;-3.8531;1.2455;0.0000;-0.3206;1.0362
533;-3.5526;1.2454;0.0000;-0.3266;1.0113
534;-3.2463;1.2452;0.0000;-0.3216;1.0145
535;-2.9373;1.2451;0.0000;-0.3165;1.0339
536;-2.6272;1.2448;0.0000;-0.3377;1.0447
537;-2.3167;1.2445;0.0000;-0.3067;1.0530
538;-2.0057;1.2444;0.0000;-0.2696;1.0530
539;-1.6947;1.2442;0.0000;-0.2947;1.0308
540;-1.3837;1.2440;0.0000;-0.3167;1.0105
541;-1.0728;1.2438;0.0000;-0.3135;1.0053
542;-0.7618;1.2438;0.0000;-0.2775;0.9921
543;-0.4507;1.2438;0.0000;-0.2664;0.9694
544;-0.1396;1.2437;0.0000;-0.2764;0.9489
545;0.1715;1.2439;0.0000;-0.2671;0.9302
546;0.4827;1.2439;0.0000;-0.2665;0.9311
547;0.7938;1.2439;0.0000;-0.2743;0.9334
548;1.1048;1.2438;0.0000;-0.2575;0.9299
549;1.4160;1.2438;0.0000;-0.2641;0.9405
550;1.7271;1.2438;0.0000;-0.2803;0.9330
551;2.0379;1.2435;0.0000;-0.2811;0.9125
552;2.3482;1.2430;0.0000;-0.3016;0.9121
553;2.6562;1.2419;0.0000;-0.3114;0.9170
554;2.9587;1.2401;0.0000;-0.3244;0.9276
555;3.2527;1.2409;0.0000;-0.3469;0.9300
556;3.5436;1.2594;0.0000;-0.3360;0.9289
557;-4.3052;0.9604;0.0000;-0.3349;1.0222
558;-4.0058;0.9704;0.0000;-0.3246;1.0030
559;-3.7052;0.9720;0.0000;-0.3209;0.9721
560;-3.4001;0.9723;0.0000;-0.3341;0.9448
561;-3.0922;0.9722;0.0000;-0.3223;0.9391
562;-2.7825;0.9721;0.0000;-0.3323;0.9469
563;-2.4722;0.9718;0.0000;-0.3338;0.9601
564;-2.1614;0.9716;0.0000;-0.2787;0.9809
565;-1.8503;0.9714;0.0000;-0.2704;0.9860
566;-1.5393;0.9713;0.0000;-0.2891;0.9612
567;-1.2283;0.9712;0.0000;-0.2975;0.9125
568;-0.9173;0.9711;0.0000;-0.2811;0.8730
569;-0.6061;0.9712;0.0000;-0.2628;0.8586
570;-0.2950;0.9712;0.0000;-0.2773;0.8420
571;0.0160;0.9713;0.0000;-0.2734;0.8454
572;0.3271;0.9713;0.0000;-0.2596;0.8688
573;0.6383;0.9713;0.0000;-0.2671;0.8821
574;0.9494;0.9713;0.0000;-0.2669;0.8789
575;1.2605;0.9712;0.0000;-0.2629;0.8729
576;1.5716;0.9712;0.0000;-0.2738;0.8656
577;1.8826;0.9712;0.0000;-0.2828;0.8397
578;2.1933;0.9709;0.0000;-0.2989;0.8140
579;2.5028;0.9702;0.0000;-0.3009;0.8101
580;2.8087;0.9682;0.0000;-0.2946;0.8303
581;3.1048;0.9659;0.0000;-0.3234;0.8529
582;3.3800;0.9720;0.0000;-0.3564;0.8614
583;3.6175;0.9838;0.0000;-0.3287;0.8580
584;-4.4266;0.6904;0.0000;-0.3358;0.9775
585;-4.1463;0.6970;0.0000;-0.3363;0.9594
586;-3.8540;0.6986;0.0000;-0.3332;0.9592
587;-3.5527;0.6994;0.0000;-0.3299;0.9605
588;-3.2465;0.6997;0.0000;-0.3261;0.9379
589;-2.9376;0.6996;0.0000;-0.3112;0.9202
590;-2.6275;0.6993;0.0000;-0.3353;0.9228
591;-2.3170;0.6990;0.0000;-0.3064;0.9327
592;-2.0060;0.6987;0.0000;-0.2616;0.9273
593;-1.6949;0.6986;0.0000;-0.2753;0.8971
594;-1.3838;0.6986;0.0000;-0.2771;0.8576
595;-1.0727;0.6988;0.0000;-0.2616;0.8168
596;-0.7616;0.6988;0.0000;-0.2612;0.8077
597;-0.4505;0.6989;0.0000;-0.2718;0.8059
598;-0.1394;0.6990;0.0000;-0.2859;0.8038
599;0.1716;0.6989;0.0000;-0.2861;0.8229
600;0.4827;0.6989;0.0000;-0.2629;0.8368
601;0.7938;0.6988;0.0000;-0.2577;0.8424
602;1.1050;0.6988;0.0000;-0.2620;0.8420
603;1.4160;0.6988;0.0000;-0.2614;0.8339
604;1.7272;0.6988;0.0000;-0.2655;0.8246
605;2.0382;0.6988;0.0000;-0.2890;0.8100
606;2.3487;0.6982;0.0000;-0.2964;0.7970
607;2.6583;0.6966;0.0000;-0.2801;0.8001
608;2.9649;0.6930;0.0000;-0.2959;0.8146
609;3.2649;0.6903;0.0000;-0.3382;0.8269
610;3.5530;0.6992;0.0000;-0.3556;0.8280
611;-4.3059;0.4295;0.0000;-0.3412;0.9607
612;-4.0063;0.4258;0.0000;-0.3494;0.9788
613;-3.7056;0.4261;0.0000;-0.3395;1.0061
614;-3.4006;0.4266;0.0000;-0.3228;1.0022
615;-3.0925;0.4269;0.0000;-0.3011;0.9679
616;-2.7827;0.4268;0.0000;-0.3026;0.9300
617;-2.4723;0.4265;0.0000;-0.3067;0.8914
618;-2.1615;0.4262;0.0000;-0.2664;0.8522
619;-1.8503;0.4262;0.0000;-0.2696;0.8269
620;-1.5394;0.4262;0.0000;-0.2908;0.8217
621;-1.2284;0.4264;0.0000;-0.2635;0.8261
622;-0.9171;0.4265;0.0000;-0.2498;0.8204
623;-0.6060;0.4265;0.0000;-0.2616;0.8174
624;-0.2949;0.4266;0.0000;-0.2722;0.8367
625;0.0162;0.4266;0.0000;-0.2958;0.8525
626;0.3271;0.4265;0.0000;-0.2864;0.8525
627;0.6382;0.4265;0.0000;-0.2639;0.8463
628;0.9494;0.4264;0.0000;-0.2576;0.8521
629;1.2605;0.4264;0.0000;-0.2505;0.8553
630;1.5717;0.4264;0.0000;-0.2488;0.8488
631;1.8828;0.4265;0.0000;-0.2791;0.8515
632;2.1938;0.4263;0.0000;-0.2932;0.8378
633;2.5050;0.4256;0.0000;-0.2658;0.8063
634;2.8172;0.4235;0.0000;-0.2779;0.7938
635;3.1324;0.4207;0.0000;-0.3093;0.8017
636;3.4574;0.4289;0.0000;-0.3454;0.8029
637;-4.4013;0.1680;0.0000;-0.3388;0.9880
638;-4.1425;0.1526;0.0000;-0.3355;0.9758
639;-3.8539;0.1522;0.0000;-0.3530;0.9793
640;-3.5532;0.1532;0.0000;-0.3320;0.9767
641;-3.2469;0.1540;0.0000;-0.3136;0.9451
642;-2.9379;0.1542;0.0000;-0.2976;0.8931
643;-2.6277;0.1541;0.0000;-0.2905;0.8530
644;-2.3169;0.1540;0.0000;-0.2679;0.8286
645;-2.0058;0.1539;0.0000;-0.2517;0.8056
646;-1.6948;0.1539;0.0000;-0.2801;0.7959
647;-1.3837;0.1539;0.0000;-0.2781;0.8072
648;-1.0727;0.1540;0.0000;-0.2507;0.8266
649;-0.7615;0.1542;0.0000;-0.2607;0.8328
650;-0.4504;0.1542;0.0000;-0.2742;0.8417
651;-0.1394;0.1541;0.0000;-0.2830;0.8675
652;0.1717;0.1540;0.0000;-0.2741;0.8852
653;0.4829;0.1540;0.0000;-0.2661;0.8867
654;0.7939;0.1539;0.0000;-0.2765;0.8856
655;1.1050;0.1538;0.0000;-0.2654;0.8861
656;1.4162;0.1539;0.0000;-0.2518;0.8929
657;1.7273;0.1540;0.0000;-0.2530;0.9044
658;2.0385;0.1539;0.0000;-0.2862;0.9144
659;2.3497;0.1537;0.0000;-0.2761;0.9070
660;2.6616;0.1531;0.0000;-0.2608;0.8788
661;2.9750;0.1517;0.0000;-0.2869;0.8564
662;3.2894;0.1522;0.0000;-0.3095;0.8563
663;3.5905;0.1723;0.0000;-0.3420;0.8636
664;-4.3266;-0.1161;0.0000;-0.3067;0.9462
665;-4.0148;-0.1203;0.0000;-0.3369;0.9250
666;-3.7086;-0.1196;0.0000;-0.3479;0.8966
667;-3.4016;-0.1189;0.0000;-0.3372;0.9035
668;-3.0929;-0.1184;0.0000;-0.3106;0.9055
669;-2.7830;-0.1182;0.0000;-0.2902;0.8728
670;-2.4724;-0.1183;0.0000;-0.2810;0.8310
671;-2.1614;-0.1185;0.0000;-0.2602;0.7882
672;-1.8503;-0.1184;0.0000;-0.2564;0.7642
673;-1.5393;-0.1183;0.0000;-0.2662;0.7617
674;-1.2281;-0.1183;0.0000;-0.2488;0.7744
675;-0.9169;-0.1183;0.0000;-0.2513;0.8191
676;-0.6059;-0.1183;0.0000;-0.2731;0.8596
677;-0.2948;-0.1183;0.0000;-0.2815;0.8510
678;0.0163;-0.1185;0.0000;-0.2684;0.8382
679;0.3274;-0.1186;0.0000;-0.2583;0.8632
680;0.6386;-0.1186;0.0000;-0.2781;0.9084
681;0.9496;-0.1186;0.0000;-0.2794;0.9243
682;1.2607;-0.1187;0.0000;-0.2785;0.9252
683;1.5717;-0.1187;0.0000;-0.2577;0.9274
684;1.8830;-0.1187;0.0000;-0.2672;0.9276
685;2.1942;-0.1188;0.0000;-0.2881;0.9444
686;2.5061;-0.1189;0.0000;-0.2702;0.9700
687;2.8201;-0.1191;0.0000;-0.2682;0.9710
688;3.1392;-0.1191;0.0000;-0.2810;0.9391
689;3.4686;-0.1204;0.0000;-0.3122;0.9277
690;-4.4056;-0.3961;0.0000;-0.3021;0.8573
691;-4.1484;-0.3937;0.0000;-0.3200;0.8720
692;-3.8564;-0.3915;0.0000;-0.3200;0.8598
693;-3.5540;-0.3912;0.0000;-0.3305;0.8499
694;-3.2471;-0.3911;0.0000;-0.3182;0.8830
695;-2.9379;-0.3909;0.0000;-0.2983;0.9092
696;-2.6276;-0.3908;0.0000;-0.3060;0.8818
697;-2.3169;-0.3907;0.0000;-0.2986;0.8226
698;-2.0060;-0.3905;0.0000;-0.2580;0.7969
699;-1.6948;-0.3905;0.0000;-0.2367;0.7967
700;-1.3837;-0.3905;0.0000;-0.2410;0.7911
701;-1.0724;-0.3905;0.0000;-0.2375;0.8111
702;-0.7613;-0.3907;0.0000;-0.2614;0.8395
703;-0.4502;-0.3908;0.0000;-0.2786;0.8546
704;-0.1391;-0.3907;0.0000;-0.2758;0.8583
705;0.1720;-0.3908;0.0000;-0.2736;0.8680
706;0.4831;-0.3911;0.0000;-0.2843;0.9185
707;0.7941;-0.3914;0.0000;-0.2764;0.9708
708;1.1052;-0.3914;0.0000;-0.2658;0.9709
709;1.4163;-0.3914;0.0000;-0.2638;0.9513
710;1.7275;-0.3913;0.0000;-0.2739;0.9560
711;2.0385;-0.3914;0.0000;-0.3028;0.9674
712;2.3499;-0.3914;0.0000;-0.2772;0.9877
713;2.6622;-0.3914;0.0000;-0.2533;1.0183
714;2.9758;-0.3910;0.0000;-0.2722;1.0024
715;3.2887;-0.3912;0.0000;-0.2951;0.9593
716;3.5896;-0.4151;0.0000;-0.3264;0.9314
717;-4.3224;-0.6783;0.0000;-0.3353;0.8405
718;-4.0123;-0.6636;0.0000;-0.3092;0.8767
719;-3.7074;-0.6631;0.0000;-0.2936;0.8904
720;-3.4010;-0.6633;0.0000;-0.2894;0.8880
721;-3.0924;-0.6634;0.0000;-0.2917;0.8969
722;-2.7826;-0.6634;0.0000;-0.3278;0.9123
723;-2.4722;-0.6632;0.0000;-0.3246;0.9118
724;-2.1614;-0.6631;0.0000;-0.2844;0.9159
725;-1.8504;-0.6630;0.0000;-0.2383;0.9213
726;-1.5391;-0.6629;0.0000;-0.2379;0.9096
727;-1.2280;-0.6629;0.0000;-0.2414;0.8977
728;-0.9168;-0.6631;0.0000;-0.2470;0.8804
729;-0.6057;-0.6632;0.0000;-0.2650;0.8706
730;-0.2946;-0.6633;0.0000;-0.2639;0.9007
731;0.0166;-0.6634;0.0000;-0.2798;0.9326
732;0.3276;-0.6636;0.0000;-0.3061;0.9351
733;0.6385;-0.6640;0.0000;-0.2906;0.9297
734;0.9496;-0.6643;0.0000;-0.2657;0.9351
735;1.2607;-0.6642;0.0000;-0.2616;0.9466
736;1.5719;-0.6641;0.0000;-0.2517;0.9751
737;1.8831;-0.6642;0.0000;-0.2910;0.9997
738;2.1943;-0.6642;0.0000;-0.2997;0.9940
739;2.5060;-0.6642;0.0000;-0.2629;0.9844
740;2.8193;-0.6641;0.0000;-0.2556;0.9657
741;3.1350;-0.6644;0.0000;-0.2871;0.9461
742;3.4557;-0.6679;0.0000;-0.3164;0.9352
743;-4.3962;-0.9705;0.0000;-0.3574;0.8911
744;-4.1367;-0.9364;0.0000;-0.3149;0.9076
745;-3.8508;-0.9354;0.0000;-0.2785;0.9449
746;-3.5517;-0.9359;0.0000;-0.2720;0.9507
747;-3.2460;-0.9360;0.0000;-0.2712;0.9327
748;-2.9372;-0.9360;0.0000;-0.3162;0.9458
749;-2.6273;-0.9360;0.0000;-0.3302;0.9883
750;-2.3167;-0.9359;0.0000;-0.2970;1.0113
751;-2.0058;-0.9358;0.0000;-0.2718;1.0002
752;-1.6947;-0.9357;0.0000;-0.2634;0.9782
753;-1.3836;-0.9357;0.0000;-0.2588;0.9680
754;-1.0724;-0.9357;0.0000;-0.2280;0.9618
755;-0.7612;-0.9357;0.0000;-0.2456;0.9404
756;-0.4500;-0.9358;0.0000;-0.2607;0.9235
757;-0.1389;-0.9360;0.0000;-0.2613;0.9320
758;0.1722;-0.9362;0.0000;-0.3115;0.9554
759;0.4831;-0.9364;0.0000;-0.3067;0.9475
760;0.7941;-0.9367;0.0000;-0.2640;0.9060
761;1.1053;-0.9368;0.0000;-0.2690;0.9049
762;1.4163;-0.9368;0.0000;-0.2673;0.9416
763;1.7275;-0.9370;0.0000;-0.2645;0.9654
764;2.0386;-0.9371;0.0000;-0.2792;0.9708
765;2.3500;-0.9370;0.0000;-0.2601;0.9506
766;2.6618;-0.9370;0.0000;-0.2454;0.9152
767;2.9734;-0.9374;0.0000;-0.2724;0.9109
768;3.2811;-0.9416;0.0000;-0.3162;0.9380
769;3.5672;-0.9249;0.0000;-0.3332;0.9502
770;-4.2918;-1.2085;0.0000;-0.3374;0.9764
771;-3.9995;-1.2093;0.0000;-0.2848;0.9789
772;-3.7027;-1.2094;0.0000;-0.2630;0.9751
773;-3.3992;-1.2090;0.0000;-0.2619;0.9644
774;-3.0917;-1.2088;0.0000;-0.2913;0.9821
775;-2.7823;-1.2089;0.0000;-0.3123;1.0267
776;-2.4718;-1.2090;0.0000;-0.2920;1.0619
777;-2.1610;-1.2088;0.0000;-0.2852;1.0539
778;-1.8501;-1.2086;0.0000;-0.2931;1.0279
779;-1.5391;-1.2084;0.0000;-0.2786;1.0433
780;-1.2280;-1.2084;0.0000;-0.2413;1.0632
781;-0.9167;-1.2085;0.0000;-0.2390;1.0420
782;-0.6056;-1.2084;0.0000;-0.2726;1.0171
783;-0.2946;-1.2085;0.0000;-0.2725;0.9846
784;0.0166;-1.2088;0.0000;-0.2842;0.9666
785;0.3276;-1.2091;0.0000;-0.2991;0.9778
786;0.6386;-1.2093;0.0000;-0.2655;0.9613
787;0.9498;-1.2093;0.0000;-0.2585;0.9353
788;1.2609;-1.2094;0.0000;-0.2758;0.9349
789;1.5719;-1.2096;0.0000;-0.2641;0.9356
790;1.8831;-1.2097;0.0000;-0.2575;0.9242
791;2.1945;-1.2097;0.0000;-0.2491;0.9162
792;2.5066;-1.2095;0.0000;-0.2356;0.9099
793;2.8208;-1.2094;0.0000;-0.2575;0.9272
794;3.1406;-1.2102;0.0000;-0.3163;0.9712
795;3.4784;-1.2143;0.0000;-0.3489;1.0135
796;-4.3950;-1.4449;0.0000;-0.3359;1.0338
797;-4.1354;-1.4818;0.0000;-0.2963;1.0116
798;-3.8499;-1.4837;0.0000;-0.2675;0.9914
799;-3.5511;-1.4826;0.0000;-0.2558;0.9772
800;-3.2456;-1.4819;0.0000;-0.2792;0.9916
801;-2.9370;-1.4819;0.0000;-0.3004;1.0164
802;-2.6270;-1.4820;0.0000;-0.2965;1.0187
803;-2.3164;-1.4820;0.0000;-0.2737;1.0241
804;-2.0054;-1.4817;0.0000;-0.2781;1.0424
805;-1.6944;-1.4815;0.0000;-0.2810;1.0763
806;-1.3833;-1.4817;0.0000;-0.2781;1.1140
807;-1.0722;-1.4817;0.0000;-0.2665;1.1049
808;-0.7611;-1.4815;0.0000;-0.2665;1.0924
809;-0.4500;-1.4816;0.0000;-0.2877;1.0915
810;-0.1390;-1.4815;0.0000;-0.3084;1.0624
811;0.1719;-1.4817;0.0000;-0.2924;1.0217
812;0.4830;-1.4820;0.0000;-0.2680;0.9844
813;0.7942;-1.4821;0.0000;-0.2434;0.9670
814;1.1053;-1.4821;0.0000;-0.2439;0.9604
815;1.4165;-1.4822;0.0000;-0.2505;0.9395
816;1.7277;-1.4823;0.0000;-0.2509;0.9153
817;2.0389;-1.4823;0.0000;-0.2505;0.9149
818;2.3504;-1.4822;0.0000;-0.2372;0.9391
819;2.6620;-1.4819;0.0000;-0.2552;0.9617
820;2.9730;-1.4815;0.0000;-0.2934;0.9863
821;3.2800;-1.4815;0.0000;-0.3364;1.0265
822;3.5632;-1.5042;0.0000;-0.3702;1.0491
823;-4.3219;-1.7376;0.0000;-0.3074;1.0234
824;-4.0114;-1.7554;0.0000;-0.2690;0.9982
825;-3.7065;-1.7561;0.0000;-0.2512;0.9934
826;-3.4003;-1.7551;0.0000;-0.2803;1.0162
827;-3.0920;-1.7547;0.0000;-0.2908;1.0019
828;-2.7822;-1.7548;0.0000;-0.2833;0.9627
829;-2.4716;-1.7548;0.0000;-0.2734;0.9460
830;-2.1607;-1.7547;0.0000;-0.2647;0.9750
831;-1.8497;-1.7546;0.0000;-0.2800;1.0063
832;-1.5386;-1.7547;0.0000;-0.2897;1.0009
833;-1.2277;-1.7548;0.0000;-0.2947;1.0160
834;-0.9167;-1.7547;0.0000;-0.2837;1.0645
835;-0.6055;-1.7547;0.0000;-0.2714;1.0801
836;-0.2945;-1.7547;0.0000;-0.3185;1.0834
837;0.0164;-1.7547;0.0000;-0.3151;1.0781
838;0.3274;-1.7548;0.0000;-0.2732;1.0334
839;0.6385;-1.7549;0.0000;-0.2505;0.9912
840;0.9498;-1.7548;0.0000;-0.2226;0.9748
841;1.2610;-1.7549;0.0000;-0.2244;0.9609
842;1.5722;-1.7549;0.0000;-0.2362;0.9435
843;1.8835;-1.7549;0.0000;-0.2537;0.9406
844;2.1948;-1.7550;0.0000;-0.2569;0.9533
845;2.5064;-1.7550;0.0000;-0.2623;0.9710
846;2.8187;-1.7548;0.0000;-0.2811;0.9907
847;3.1327;-1.7547;0.0000;-0.3092;1.0116
848;3.4531;-1.7606;0.0000;-0.3573;1.0162
849;-4.4051;-2.0203;0.0000;-0.3096;1.0449
850;-4.1482;-2.0241;0.0000;-0.2807;1.0274
851;-3.8560;-2.0281;0.0000;-0.2554;1.0025
852;-3.5535;-2.0282;0.0000;-0.2592;1.0238
853;-3.2464;-2.0277;0.0000;-0.2794;1.0260
854;-2.9371;-2.0275;0.0000;-0.2670;0.9915
855;-2.6268;-2.0274;0.0000;-0.2728;0.9797
856;-2.3160;-2.0274;0.0000;-0.2716;1.0019
857;-2.0051;-2.0274;0.0000;-0.2822;1.0178
858;-1.6941;-2.0273;0.0000;-0.2899;0.9907
859;-1.3831;-2.0274;0.0000;-0.2865;0.9655
860;-1.0720;-2.0276;0.0000;-0.2991;0.9938
861;-0.7611;-2.0277;0.0000;-0.3030;1.0238
862;-0.4500;-2.0277;0.0000;-0.2945;1.0420
863;-0.1390;-2.0277;0.0000;-0.3103;1.0559
864;0.1720;-2.0278;0.0000;-0.2834;1.0301
865;0.4831;-2.0277;0.0000;-0.2623;0.9922
866;0.7942;-2.0276;0.0000;-0.2327;0.9832
867;1.1055;-2.0277;0.0000;-0.2086;0.9730
868;1.4168;-2.0276;0.0000;-0.2204;0.9587
869;1.7280;-2.0277;0.0000;-0.2530;0.9553
870;2.0392;-2.0277;0.0000;-0.2827;0.9434
871;2.3504;-2.0277;0.0000;-0.2685;0.9386
872;2.6619;-2.0277;0.0000;-0.2748;0.9610
873;2.9729;-2.0275;0.0000;-0.3005;0.9905
874;3.2819;-2.0262;0.0000;-0.3427;0.9999
875;3.5870;-2.0211;0.0000;-0.3433;1.0014
876;-4.3257;-2.3011;0.0000;-0.3025;1.0121
877;-4.0147;-2.2989;0.0000;-0.2475;0.9915
878;-3.7083;-2.3004;0.0000;-0.2407;0.9894
879;-3.4009;-2.3005;0.0000;-0.2715;0.9893
880;-3.0921;-2.3003;0.0000;-0.2746;0.9959
881;-2.7820;-2.3003;0.0000;-0.2675;1.0110
882;-2.4714;-2.3004;0.0000;-0.2836;1.0343
883;-2.1605;-2.3005;0.0000;-0.2807;1.0587
884;-1.8495;-2.3004;0.0000;-0.2808;1.0653
885;-1.5385;-2.3002;0.0000;-0.2920;1.0495
886;-1.2275;-2.3003;0.0000;-0.2884;1.0251
887;-0.9164;-2.3005;0.0000;-0.3020;1.0132
888;-0.6055;-2.3005;0.0000;-0.3078;1.0182
889;-0.2945;-2.3007;0.0000;-0.3060;1.0234
890;0.0165;-2.3007;0.0000;-0.2948;1.0119
891;0.3275;-2.3006;0.0000;-0.2657;0.9887
892;0.6387;-2.3004;0.0000;-0.2452;0.9808
893;0.9499;-2.3005;0.0000;-0.2221;0.9621
894;1.2612;-2.3004;0.0000;-0.2163;0.9343
895;1.5725;-2.3004;0.0000;-0.2496;0.9367
896;1.8836;-2.3004;0.0000;-0.2844;0.9412
897;2.1947;-2.3004;0.0000;-0.2849;0.9276
898;2.5062;-2.3005;0.0000;-0.2662;0.9244
899;2.8183;-2.3005;0.0000;-0.2738;0.9369
900;3.1316;-2.2991;0.0000;-0.3231;0.9534
901;3.4510;-2.2876;0.0000;-0.3374;0.9703
902;-4.3997;-2.5847;0.0000;-0.2811;0.9059
903;-4.1416;-2.5717;0.0000;-0.2546;0.9179
904;-3.8535;-2.5722;0.0000;-0.2572;0.9345
905;-3.5526;-2.5730;0.0000;-0.2723;0.9373
906;-3.2461;-2.5731;0.0000;-0.2779;0.9436
907;-2.9369;-2.5731;0.0000;-0.2715;0.9521
908;-2.6266;-2.5732;0.0000;-0.2961;0.9537
909;-2.3160;-2.5733;0.0000;-0.3101;0.9604
910;-2.0052;-2.5735;0.0000;-0.2719;0.9715
911;-1.6940;-2.5733;0.0000;-0.2705;1.0081
912;-1.3830;-2.5733;0.0000;-0.2962;1.0410
913;-1.0720;-2.5734;0.0000;-0.2787;1.0257
914;-0.7608;-2.5735;0.0000;-0.2864;1.0084
915;-0.4499;-2.5735;0.0000;-0.3135;1.0014
916;-0.1390;-2.5736;0.0000;-0.3051;0.9785
917;0.1721;-2.5735;0.0000;-0.2698;0.9623
918;0.4833;-2.5733;0.0000;-0.2433;0.9667
919;0.7945;-2.5732;0.0000;-0.2476;0.9566
920;1.1056;-2.5730;0.0000;-0.2505;0.9436
921;1.4167;-2.5730;0.0000;-0.2622;0.9415
922;1.7279;-2.5731;0.0000;-0.2624;0.9319
923;2.0391;-2.5731;0.0000;-0.2688;0.9300
924;2.3503;-2.5731;0.0000;-0.2719;0.9229
925;2.6615;-2.5734;0.0000;-0.2651;0.9068
926;2.9719;-2.5738;0.0000;-0.2805;0.8999
927;3.2764;-2.5700;0.0000;-0.3399;0.8951
928;3.5579;-2.5399;0.0000;-0.3209;0.8957
929;-4.3049;-2.8473;0.0000;-0.2536;0.8358
930;-4.0057;-2.8455;0.0000;-0.2605;0.8657
931;-3.7049;-2.8457;0.0000;-0.2871;0.8950
932;-3.3998;-2.8457;0.0000;-0.2805;0.8998
933;-3.0916;-2.8457;0.0000;-0.2820;0.9019
934;-2.7818;-2.8457;0.0000;-0.3014;0.8885
935;-2.4714;-2.8458;0.0000;-0.3140;0.8643
936;-2.1606;-2.8460;0.0000;-0.2879;0.8486
937;-1.8496;-2.8460;0.0000;-0.2605;0.8692
938;-1.5385;-2.8461;0.0000;-0.2930;0.9262
939;-1.2275;-2.8463;0.0000;-0.2914;0.9582
940;-0.9164;-2.8462;0.0000;-0.2636;0.9572
941;-0.6053;-2.8463;0.0000;-0.2831;0.9584
942;-0.2943;-2.8463;0.0000;-0.3016;0.9539
943;0.0168;-2.8462;0.0000;-0.2824;0.9389
944;0.3278;-2.8460;0.0000;-0.2541;0.9323
945;0.6390;-2.8460;0.0000;-0.2575;0.9367
946;0.9502;-2.8459;0.0000;-0.2591;0.9519
947;1.2613;-2.8458;0.0000;-0.2682;0.9598
948;1.5722;-2.8457;0.0000;-0.2863;0.9503
949;1.8834;-2.8457;0.0000;-0.2682;0.9364
950;2.1947;-2.8458;0.0000;-0.2660;0.9205
951;2.5067;-2.8458;0.0000;-0.2742;0.9003
952;2.8207;-2.8462;0.0000;-0.2664;0.8836
953;3.1401;-2.8456;0.0000;-0.2967;0.8608
954;3.4732;-2.8327;0.0000;-0.3126;0.8389
955;-4.4241;-3.1078;0.0000;-0.2607;0.8572
956;-4.1452;-3.1158;0.0000;-0.2594;0.8929
957;-3.8531;-3.1182;0.0000;-0.2802;0.9247
958;-3.5521;-3.1184;0.0000;-0.2896;0.9294
959;-3.2457;-3.1183;0.0000;-0.2696;0.9152
960;-2.9367;-3.1183;0.0000;-0.2983;0.9039
961;-2.6266;-3.1182;0.0000;-0.3131;0.8779
962;-2.3160;-3.1182;0.0000;-0.2929;0.8527
963;-2.0050;-3.1183;0.0000;-0.2712;0.8610
964;-1.6939;-3.1185;0.0000;-0.2875;0.8785
965;-1.3830;-3.1187;0.0000;-0.3019;0.8811
966;-1.0720;-3.1189;0.0000;-0.2704;0.9010
967;-0.7608;-3.1189;0.0000;-0.2685;0.9280
968;-0.4497;-3.1190;0.0000;-0.2908;0.9208
969;-0.1388;-3.1190;0.0000;-0.2892;0.9121
970;0.1723;-3.1188;0.0000;-0.2626;0.9282
971;0.4835;-3.1186;0.0000;-0.2647;0.9410
972;0.7945;-3.1186;0.0000;-0.2806;0.9397
973;1.1056;-3.1185;0.0000;-0.2373;0.9325
974;1.4170;-3.1184;0.0000;-0.2534;0.9258
975;1.7280;-3.1185;0.0000;-0.2945;0.9128
976;2.0391;-3.1184;0.0000;-0.2900;0.8928
977;2.3505;-3.1182;0.0000;-0.2869;0.8741
978;2.6624;-3.1182;0.0000;-0.2745;0.8565
979;2.9754;-3.1180;0.0000;-0.2663;0.8438
980;3.2859;-3.1176;0.0000;-0.2947;0.8324
981;3.5661;-3.1178;0.0000;-0.3013;0.8224
982;-4.3032;-3.3783;0.0000;-0.2862;0.9280
983;-4.0047;-3.3895;0.0000;-0.2715;0.9537
984;-3.7042;-3.3914;0.0000;-0.2792;0.9485
985;-3.3995;-3.3911;0.0000;-0.2729;0.9344
986;-3.0914;-3.3910;0.0000;-0.2719;0.9321
987;-2.7817;-3.3909;0.0000;-0.3043;0.9326
988;-2.4713;-3.3908;0.0000;-0.3053;0.9205
989;-2.1605;-3.3909;0.0000;-0.2925;0.9059
990;-1.8495;-3.3910;0.0000;-0.2945;0.9038
991;-1.5385;-3.3911;0.0000;-0.2975;0.8818
992;-1.2275;-3.3913;0.0000;-0.2598;0.8719
993;-0.9163;-3.3915;0.0000;-0.2684;0.8897
994;-0.6053;-3.3916;0.0000;-0.2865;0.8948
995;-0.2942;-3.3915;0.0000;-0.2840;0.8939
996;0.0168;-3.3915;0.0000;-0.2756;0.9096
997;0.3279;-3.3914;0.0000;-0.2542;0.9400
998;0.6391;-3.3914;0.0000;-0.2750;0.9519
999;0.9501;-3.3912;0.0000;-0.2820;0.9434
1000;1.2613;-3.3911;0.0000;-0.2503;0.9298
1001;1.5724;-3.3910;0.0000;-0.2734;0.9014
1002;1.8835;-3.3908;0.0000;-0.3009;0.8727
1003;2.1947;-3.3908;0.0000;-0.2890;0.8656
1004;2.5067;-3.3905;0.0000;-0.2781;0.8579
1005;2.8207;-3.3899;0.0000;-0.2750;0.8355
1006;3.1399;-3.3902;0.0000;-0.2775;0.8301
1007;3.4723;-3.4031;0.0000;-0.2855;0.8374
1008;-4.3959;-3.6349;0.0000;-0.2901;0.9448
1009;-4.1389;-3.6600;0.0000;-0.2861;0.9369
1010;-3.8517;-3.6645;0.0000;-0.2710;0.9061
1011;-3.5517;-3.6642;0.0000;-0.2789;0.8901
1012;-3.2456;-3.6638;0.0000;-0.2723;0.8942
1013;-2.9367;-3.6637;0.0000;-0.2805;0.9087
1014;-2.6265;-3.6636;0.0000;-0.2935;0.9131
1015;-2.3158;-3.6635;0.0000;-0.3025;0.9031
1016;-2.0050;-3.6635;0.0000;-0.3128;0.8841
1017;-1.6941;-3.6637;0.0000;-0.3111;0.8534
1018;-1.3831;-3.6637;0.0000;-0.2593;0.8441
1019;-1.0718;-3.6639;0.0000;-0.2407;0.8590
1020;-0.7608;-3.6641;0.0000;-0.2916;0.8579
1021;-0.4498;-3.6641;0.0000;-0.2789;0.8681
1022;-0.1386;-3.6641;0.0000;-0.2608;0.9002
1023;0.1725;-3.6641;0.0000;-0.2704;0.9133
1024;0.4836;-3.6641;0.0000;-0.2537;0.9243
1025;0.7948;-3.6641;0.0000;-0.2893;0.9409
1026;1.1057;-3.6639;0.0000;-0.3038;0.9423
1027;1.4167;-3.6637;0.0000;-0.2734;0.9355
1028;1.7279;-3.6635;0.0000;-0.2888;0.9170
1029;2.0389;-3.6633;0.0000;-0.2952;0.8860
1030;2.3501;-3.6631;0.0000;-0.2613;0.8692
1031;2.6615;-3.6626;0.0000;-0.2665;0.8669
1032;2.9715;-3.6622;0.0000;-0.2841;0.8502
1033;3.2750;-3.6664;0.0000;-0.2766;0.8191
1034;3.5529;-3.6969;0.0000;-0.2790;0.8094
1035;-4.3210;-3.9238;0.0000;-0.2830;0.9118
1036;-4.0119;-3.9363;0.0000;-0.2773;0.8755
1037;-3.7068;-3.9372;0.0000;-0.2823;0.8731
1038;-3.4002;-3.9366;0.0000;-0.2887;0.8920
1039;-3.0917;-3.9364;0.0000;-0.2864;0.8877
1040;-2.7818;-3.9363;0.0000;-0.2898;0.8764
1041;-2.4712;-3.9361;0.0000;-0.2938;0.8909
1042;-2.1604;-3.9361;0.0000;-0.3016;0.8954
1043;-1.8495;-3.9361;0.0000;-0.3204;0.8650
1044;-1.5386;-3.9361;0.0000;-0.3013;0.8532
1045;-1.2275;-3.9363;0.0000;-0.2425;0.8455
1046;-0.9162;-3.9366;0.0000;-0.2583;0.8232
1047;-0.6052;-3.9366;0.0000;-0.2805;0.8250
1048;-0.2942;-3.9367;0.0000;-0.2557;0.8403
1049;0.0171;-3.9367;0.0000;-0.2721;0.8530
1050;0.3280;-3.9367;0.0000;-0.2761;0.8831
1051;0.6392;-3.9368;0.0000;-0.2592;0.9084
1052;0.9503;-3.9366;0.0000;-0.2909;0.9054
1053;1.2613;-3.9365;0.0000;-0.2966;0.9125
1054;1.5723;-3.9363;0.0000;-0.3002;0.9112
1055;1.8832;-3.9360;0.0000;-0.3176;0.8859
1056;2.1944;-3.9357;0.0000;-0.2591;0.8707
1057;2.5059;-3.9355;0.0000;-0.2479;0.8739
1058;2.8176;-3.9355;0.0000;-0.2870;0.8749
1059;3.1300;-3.9374;0.0000;-0.2716;0.8540
1060;3.4481;-3.9498;0.0000;-0.2714;0.8249
1061;-4.4069;-4.2003;0.0000;-0.2981;0.8131
1062;-4.1478;-4.2082;0.0000;-0.2910;0.8222
1063;-3.8555;-4.2097;0.0000;-0.2772;0.8367
1064;-3.5530;-4.2097;0.0000;-0.2850;0.8713
1065;-3.2460;-4.2095;0.0000;-0.2862;0.8865
1066;-2.9367;-4.2093;0.0000;-0.2976;0.8729
1067;-2.6265;-4.2092;0.0000;-0.3121;0.8774
1068;-2.3159;-4.2092;0.0000;-0.2963;0.8882
1069;-2.0049;-4.2091;0.0000;-0.2928;0.8926
1070;-1.6940;-4.2089;0.0000;-0.3149;0.9046
1071;-1.3830;-4.2090;0.0000;-0.2931;0.8914
1072;-1.0720;-4.2091;0.0000;-0.2616;0.8440
1073;-0.7609;-4.2091;0.0000;-0.2528;0.8114
1074;-0.4496;-4.2092;0.0000;-0.2576;0.8071
1075;-0.1385;-4.2092;0.0000;-0.2692;0.8183
1076;0.1725;-4.2092;0.0000;-0.2803;0.8497
1077;0.4836;-4.2094;0.0000;-0.2506;0.8700
1078;0.7948;-4.2094;0.0000;-0.2575;0.8729
1079;1.1059;-4.2091;0.0000;-0.2821;0.8775
1080;1.4170;-4.2090;0.0000;-0.2934;0.8759
1081;1.7279;-4.2087;0.0000;-0.3344;0.8843
1082;2.0388;-4.2083;0.0000;-0.2918;0.8937
1083;2.3501;-4.2081;0.0000;-0.2359;0.9060
1084;2.6612;-4.2080;0.0000;-0.2900;0.9164
1085;2.9711;-4.2085;0.0000;-0.2975;0.9058
1086;3.2788;-4.2108;0.0000;-0.2709;0.8895
1087;3.5823;-4.2159;0.0000;-0.2632;0.8444
1088;-4.3229;-4.4882;0.0000;-0.3048;0.7846
1089;-4.0126;-4.4829;0.0000;-0.2808;0.7917
1090;-3.7070;-4.4833;0.0000;-0.2801;0.8058
1091;-3.4001;-4.4834;0.0000;-0.2939;0.8345
1092;-3.0914;-4.4832;0.0000;-0.2896;0.8541
1093;-2.7815;-4.4830;0.0000;-0.3139;0.8563
1094;-2.4710;-4.4829;0.0000;-0.3049;0.8556
1095;-2.1601;-4.4828;0.0000;-0.2829;0.8642
1096;-1.8491;-4.4827;0.0000;-0.3092;0.8911
1097;-1.5383;-4.4825;0.0000;-0.3017;0.9111
1098;-1.2272;-4.4824;0.0000;-0.2763;0.8951
1099;-0.9160;-4.4823;0.0000;-0.2543;0.8637
1100;-0.6049;-4.4821;0.0000;-0.2600;0.8440
1101;-0.2938;-4.4821;0.0000;-0.2837;0.8441
1102;0.0172;-4.4821;0.0000;-0.2758;0.8531
1103;0.3284;-4.4822;0.0000;-0.2359;0.8573
1104;0.6396;-4.4821;0.0000;-0.2342;0.8575
1105;0.9508;-4.4819;0.0000;-0.2622;0.8567
1106;1.2619;-4.4817;0.0000;-0.2770;0.8710
1107;1.5729;-4.4814;0.0000;-0.3092;0.9096
1108;1.8839;-4.4810;0.0000;-0.3199;0.9479
1109;2.1950;-4.4807;0.0000;-0.2695;0.9800
1110;2.5063;-4.4806;0.0000;-0.2694;0.9848
1111;2.8176;-4.4805;0.0000;-0.2956;0.9489
1112;3.1298;-4.4804;0.0000;-0.2913;0.9107
1113;3.4481;-4.4750;0.0000;-0.2719;0.8766
1114;-4.3946;-4.7782;0.0000;-0.3132;0.7896
1115;-4.1366;-4.7597;0.0000;-0.2922;0.7946
1116;-3.8497;-4.7591;0.0000;-0.2647;0.7852
1117;-3.5494;-4.7590;0.0000;-0.2844;0.7841
1118;-3.2432;-4.7589;0.0000;-0.2910;0.8049
1119;-2.9342;-4.7585;0.0000;-0.3087;0.8276
1120;-2.6241;-4.7580;0.0000;-0.3146;0.8474
1121;-2.3134;-4.7578;0.0000;-0.2871;0.8663
1122;-2.0024;-4.7574;0.0000;-0.2887;0.8678
1123;-1.6914;-4.7572;0.0000;-0.2930;0.8705
1124;-1.3804;-4.7570;0.0000;-0.2882;0.8868
1125;-1.0693;-4.7566;0.0000;-0.2785;0.8939
1126;-0.7582;-4.7562;0.0000;-0.2631;0.8936
1127;-0.4471;-4.7559;0.0000;-0.2784;0.8892
1128;-0.1360;-4.7557;0.0000;-0.2903;0.8713
1129;0.1750;-4.7554;0.0000;-0.2524;0.8520
1130;0.4863;-4.7554;0.0000;-0.2104;0.8532
1131;0.7976;-4.7550;0.0000;-0.2334;0.8624
1132;1.1088;-4.7545;0.0000;-0.2622;0.8724
1133;1.4199;-4.7542;0.0000;-0.2815;0.9010
1134;1.7309;-4.7538;0.0000;-0.3055;0.9327
1135;2.0420;-4.7533;0.0000;-0.2982;0.9504
1136;2.3529;-4.7531;0.0000;-0.2829;0.9623
1137;2.6636;-4.7527;0.0000;-0.2721;0.9514
1138;2.9727;-4.7521;0.0000;-0.2781;0.9059
1139;3.2762;-4.7500;0.0000;-0.2929;0.8647
1140;3.5568;-4.7252;0.0000;-0.2982;0.8531
1141;-4.2935;-5.0410;0.0000;-0.3075;0.7916
1142;-3.9947;-5.0398;0.0000;-0.2738;0.7986
1143;-3.6936;-5.0378;0.0000;-0.2612;0.8022
1144;-3.3881;-5.0367;0.0000;-0.2791;0.7799
1145;-3.0797;-5.0359;0.0000;-0.3024;0.7614
1146;-2.7699;-5.0352;0.0000;-0.3140;0.7923
1147;-2.4592;-5.0346;0.0000;-0.2949;0.8144
1148;-2.1484;-5.0340;0.0000;-0.2914;0.8185
1149;-1.8374;-5.0333;0.0000;-0.2860;0.8281
1150;-1.5262;-5.0327;0.0000;-0.2828;0.8352
1151;-1.2151;-5.0321;0.0000;-0.2936;0.8643
1152;-0.9040;-5.0314;0.0000;-0.2818;0.8964
1153;-0.5929;-5.0307;0.0000;-0.2723;0.8985
1154;-0.2817;-5.0301;0.0000;-0.2786;0.8802
1155;0.0294;-5.0294;0.0000;-0.2711;0.8605
1156;0.3406;-5.0288;0.0000;-0.2339;0.8406
1157;0.6520;-5.0283;0.0000;-0.2234;0.8346
1158;0.9633;-5.0275;0.0000;-0.2438;0.8477
1159;1.2745;-5.0268;0.0000;-0.2472;0.8512
1160;1.5858;-5.0262;0.0000;-0.2642;0.8532
1161;1.8969;-5.0254;0.0000;-0.2817;0.8673
1162;2.2082;-5.0246;0.0000;-0.2791;0.8559
1163;2.5196;-5.0240;0.0000;-0.2918;0.8485
1164;2.8318;-5.0227;0.0000;-0.2884;0.8760
1165;3.1473;-5.0192;0.0000;-0.2844;0.8782
1166;3.4765;-5.0084;0.0000;-0.3223;0.8678
1167;-4.3959;-5.2988;0.0000;-0.3146;0.7947
1168;-4.1170;-5.3198;0.0000;-0.2808;0.8023
1169;-3.8208;-5.3179;0.0000;-0.2577;0.8137
1170;-3.5168;-5.3161;0.0000;-0.2611;0.8124
1171;-3.2089;-5.3145;0.0000;-0.2946;0.7923
1172;-2.8993;-5.3132;0.0000;-0.3261;0.7903
1173;-2.5888;-5.3121;0.0000;-0.3051;0.8049
1174;-2.2778;-5.3110;0.0000;-0.2814;0.7915
1175;-1.9666;-5.3099;0.0000;-0.2842;0.7840
1176;-1.6554;-5.3088;0.0000;-0.2936;0.7843
1177;-1.3443;-5.3079;0.0000;-0.2945;0.7867
1178;-1.0330;-5.3068;0.0000;-0.2772;0.8254
1179;-0.7217;-5.3056;0.0000;-0.2748;0.8635
1180;-0.4104;-5.3044;0.0000;-0.2693;0.8557
1181;-0.0991;-5.3032;0.0000;-0.2597;0.8474
1182;0.2123;-5.3021;0.0000;-0.2467;0.8515
1183;0.5236;-5.3010;0.0000;-0.2550;0.8293
1184;0.8349;-5.2998;0.0000;-0.2579;0.8222
1185;1.1463;-5.2986;0.0000;-0.2226;0.8364
1186;1.4578;-5.2974;0.0000;-0.2174;0.8223
1187;1.7693;-5.2962;0.0000;-0.2539;0.8191
1188;2.0805;-5.2950;0.0000;-0.2627;0.8455
1189;2.3918;-5.2936;0.0000;-0.2742;0.8251
1190;2.7022;-5.2923;0.0000;-0.3014;0.8125
1191;3.0096;-5.2901;0.0000;-0.2988;0.8648
1192;3.3062;-5.2846;0.0000;-0.2961;0.8961
1193;3.5651;-5.2805;0.0000;-0.3363;0.8804
