# Units: length:mm angle:deg time:s strain:% 
# Stage: image-000009
stage;index;relative_time;date
"image-000009";10;9.0000;"2022-09-26T12:00:59.387"
# Name : Surface_xy
id;x;y;z;epsilon_x;epsilon_y
0;-4.5242;5.7046;0.0000;-0.1605;0.4662
1;-4.2124;5.7046;0.0000;-0.1664;0.4619
2;-3.9006;5.7047;0.0000;-0.1549;0.5210
3;-3.5887;5.7047;0.0000;-0.1229;0.5101
4;-3.2768;5.7048;0.0000;-0.1359;0.4855
5;-2.9649;5.7049;0.0000;-0.1487;0.4650
6;-2.6531;5.7050;0.0000;-0.1330;0.4557
7;-2.3411;5.7051;0.0000;-0.1133;0.4649
8;-2.0292;5.7052;0.0000;-0.1078;0.4416
9;-1.7171;5.7053;0.0000;-0.1014;0.4393
10;-1.4051;5.7054;0.0000;-0.1126;0.4584
11;-1.0932;5.7056;0.0000;-0.1288;0.4757
12;-0.7813;5.7056;0.0000;-0.1340;0.4779
13;-0.4694;5.7057;0.0000;-0.1114;0.4830
14;-0.1574;5.7058;0.0000;-0.1254;0.4848
15;0.1545;5.7059;0.0000;-0.1434;0.4615
16;0.4664;5.7061;0.0000;-0.1290;0.4764
17;0.7783;5.7062;0.0000;-0.1238;0.4837
18;1.0903;5.7062;0.0000;-0.1345;0.4811
19;1.4020;5.7063;0.0000;-0.1531;0.4976
20;1.7139;5.7064;0.0000;-0.1323;0.4678
21;2.0259;5.7065;0.0000;-0.1346;0.4576
22;2.3378;5.7067;0.0000;-0.1189;0.4614
23;2.6497;5.7069;0.0000;-0.1169;0.4308
24;2.9616;5.7071;0.0000;-0.1527;0.4318
25;3.2735;5.7072;0.0000;-0.1630;0.4572
26;3.5853;5.7074;0.0000;-0.1619;0.4547
27;3.8340;5.5980;0.0000;-0.1469;0.4475
28;3.8329;5.2843;0.0000;-0.1282;0.4425
29;3.8318;4.9706;0.0000;-0.1365;0.4575
30;3.8307;4.6567;0.0000;-0.1684;0.5112
31;3.8297;4.3428;0.0000;-0.1773;0.5133
32;3.8287;4.0289;0.0000;-0.1926;0.5018
33;3.8276;3.7150;0.0000;-0.1776;0.5123
34;3.8267;3.4011;0.0000;-0.1460;0.5262
35;3.8257;3.0870;0.0000;-0.1402;0.5466
36;3.8247;2.7730;0.0000;-0.1511;0.5293
37;3.8237;2.4592;0.0000;-0.1722;0.4902
38;3.8229;2.1453;0.0000;-0.1674;0.5036
39;3.8220;1.8314;0.0000;-0.1549;0.5328
40;3.8211;1.5174;0.0000;-0.1766;0.5101
41;3.8202;1.2035;0.0000;-0.1433;0.4800
42;3.8193;0.8897;0.0000;-0.1719;0.4986
43;3.8185;0.5758;0.0000;-0.1779;0.4412
44;3.8178;0.2622;0.0000;-0.1231;0.4182
45;3.8169;-0.0514;0.0000;-0.1625;0.4865
46;3.8159;-0.3653;0.0000;-0.2413;0.4835
47;3.8152;-0.6791;0.0000;-0.2059;0.4701
48;3.8145;-0.9928;0.0000;-0.1764;0.4517
49;3.8138;-1.3066;0.0000;-0.1542;0.4711
50;3.8129;-1.6204;0.0000;-0.1910;0.4718
51;3.8120;-1.9342;0.0000;-0.1336;0.4292
52;3.8114;-2.2478;0.0000;-0.1099;0.4306
53;3.8105;-2.5616;0.0000;-0.1353;0.4421
54;3.8096;-2.8752;0.0000;-0.1516;0.4064
55;3.8088;-3.1887;0.0000;-0.1331;0.4144
56;3.8080;-3.5023;0.0000;-0.1243;0.4220
57;3.8072;-3.8160;0.0000;-0.1344;0.4321
58;3.8063;-4.1297;0.0000;-0.1504;0.4579
59;3.8055;-4.4435;0.0000;-0.1425;0.4762
60;3.8046;-4.7572;0.0000;-0.1681;0.4736
61;3.8037;-5.0710;0.0000;-0.1593;0.4984
62;3.8027;-5.3849;0.0000;-0.1874;0.4944
63;3.5378;-5.4576;0.0000;-0.1355;0.4776
64;3.2257;-5.4594;0.0000;-0.0975;0.4985
65;2.9137;-5.4611;0.0000;-0.1211;0.5062
66;2.6019;-5.4629;0.0000;-0.1283;0.5181
67;2.2899;-5.4646;0.0000;-0.1099;0.4845
68;1.9780;-5.4663;0.0000;-0.1165;0.4705
69;1.6659;-5.4681;0.0000;-0.0988;0.5017
70;1.3539;-5.4699;0.0000;-0.0877;0.4921
71;1.0419;-5.4716;0.0000;-0.1335;0.4660
72;0.7301;-5.4734;0.0000;-0.1473;0.4941
73;0.4183;-5.4752;0.0000;-0.1326;0.5178
74;0.1063;-5.4769;0.0000;-0.1363;0.4861
75;-0.2056;-5.4786;0.0000;-0.1430;0.4797
76;-0.5174;-5.4803;0.0000;-0.1452;0.4785
77;-0.8292;-5.4822;0.0000;-0.1648;0.5153
78;-1.1410;-5.4839;0.0000;-0.1633;0.5253
79;-1.4528;-5.4855;0.0000;-0.1589;0.4787
80;-1.7647;-5.4873;0.0000;-0.1294;0.4849
81;-2.0767;-5.4890;0.0000;-0.0876;0.4878
82;-2.3888;-5.4909;0.0000;-0.1037;0.5191
83;-2.7006;-5.4927;0.0000;-0.1591;0.5502
84;-3.0124;-5.4944;0.0000;-0.1639;0.5451
85;-3.3243;-5.4961;0.0000;-0.1099;0.5347
86;-3.6363;-5.4979;0.0000;-0.0738;0.5300
87;-3.9484;-5.4997;0.0000;-0.1045;0.5257
88;-4.2603;-5.5015;0.0000;-0.1581;0.5239
89;-4.5709;-5.4795;0.0000;-0.1757;0.5306
90;-4.6210;-5.2109;0.0000;-0.1667;0.5249
91;-4.6212;-4.8969;0.0000;-0.1447;0.5289
92;-4.6215;-4.5830;0.0000;-0.1162;0.5183
93;-4.6216;-4.2691;0.0000;-0.1272;0.4961
94;-4.6219;-3.9553;0.0000;-0.1223;0.5150
95;-4.6222;-3.6412;0.0000;-0.1186;0.5465
96;-4.6225;-3.3272;0.0000;-0.1123;0.5154
97;-4.6227;-3.0133;0.0000;-0.1212;0.4949
98;-4.6229;-2.6995;0.0000;-0.1277;0.5117
99;-4.6232;-2.3855;0.0000;-0.1527;0.5477
100;-4.6236;-2.0714;0.0000;-0.1607;0.5456
101;-4.6239;-1.7575;0.0000;-0.1481;0.5427
102;-4.6242;-1.4434;0.0000;-0.1398;0.5336
103;-4.6244;-1.1295;0.0000;-0.1827;0.4776
104;-4.6248;-0.8158;0.0000;-0.1929;0.4278
105;-4.6252;-0.5022;0.0000;-0.1655;0.4197
106;-4.6257;-0.1886;0.0000;-0.1084;0.4399
107;-4.6260;0.1252;0.0000;-0.1422;0.4485
108;-4.6263;0.4389;0.0000;-0.1995;0.4489
109;-4.6267;0.7527;0.0000;-0.1898;0.4888
110;-4.6270;1.0666;0.0000;-0.1755;0.5358
111;-4.6273;1.3806;0.0000;-0.1839;0.5034
112;-4.6277;1.6944;0.0000;-0.1842;0.5073
113;-4.6279;2.0084;0.0000;-0.2091;0.5386
114;-4.6283;2.3224;0.0000;-0.1844;0.4649
115;-4.6286;2.6360;0.0000;-0.1453;0.4620
116;-4.6288;2.9499;0.0000;-0.1822;0.5506
117;-4.6290;3.2640;0.0000;-0.1608;0.5674
118;-4.6294;3.5780;0.0000;-0.1471;0.5258
119;-4.6298;3.8919;0.0000;-0.1529;0.5350
120;-4.6301;4.2060;0.0000;-0.1511;0.5343
121;-4.6305;4.5199;0.0000;-0.1477;0.4876
122;-4.6308;4.8337;0.0000;-0.1568;0.5364
123;-4.6309;5.1478;0.0000;-0.1904;0.5537
124;-4.6313;5.4618;0.0000;-0.1530;0.5140
125;-4.3332;5.4269;0.0000;-0.1613;0.4899
126;-4.0312;5.4228;0.0000;-0.1611;0.4927
127;-3.7257;5.4200;0.0000;-0.1289;0.5032
128;-3.4170;5.4192;0.0000;-0.1265;0.4892
129;-3.1066;5.4190;0.0000;-0.1471;0.4899
130;-2.7955;5.4189;0.0000;-0.1420;0.4924
131;-2.4839;5.4188;0.0000;-0.1163;0.4755
132;-2.1722;5.4188;0.0000;-0.1118;0.4553
133;-1.8605;5.4189;0.0000;-0.1165;0.4481
134;-1.5488;5.4189;0.0000;-0.1123;0.4634
135;-1.2370;5.4189;0.0000;-0.1146;0.4847
136;-0.9253;5.4189;0.0000;-0.1394;0.4921
137;-0.6136;5.4188;0.0000;-0.1223;0.4857
138;-0.3018;5.4189;0.0000;-0.1188;0.4775
139;0.0099;5.4190;0.0000;-0.1480;0.4736
140;0.3215;5.4190;0.0000;-0.1414;0.4781
141;0.6332;5.4190;0.0000;-0.1294;0.4765
142;0.9449;5.4190;0.0000;-0.1221;0.4645
143;1.2567;5.4190;0.0000;-0.1381;0.4719
144;1.5683;5.4190;0.0000;-0.1514;0.4800
145;1.8799;5.4191;0.0000;-0.1434;0.4662
146;2.1914;5.4192;0.0000;-0.1246;0.4521
147;2.5023;5.4195;0.0000;-0.1026;0.4446
148;2.8101;5.4201;0.0000;-0.1405;0.4498
149;3.1092;5.4211;0.0000;-0.1706;0.4662
150;3.3895;5.4234;0.0000;-0.1687;0.4633
151;3.6315;5.4154;0.0000;-0.1470;0.4488
152;-4.4298;5.1436;0.0000;-0.1601;0.5505
153;-4.1562;5.1420;0.0000;-0.1563;0.5265
154;-3.8638;5.1374;0.0000;-0.1333;0.4975
155;-3.5611;5.1358;0.0000;-0.1228;0.5042
156;-3.2533;5.1354;0.0000;-0.1477;0.5276
157;-2.9434;5.1351;0.0000;-0.1496;0.5257
158;-2.6324;5.1351;0.0000;-0.1333;0.5054
159;-2.3210;5.1351;0.0000;-0.1070;0.4904
160;-2.0093;5.1352;0.0000;-0.1248;0.4876
161;-1.6978;5.1351;0.0000;-0.1310;0.4877
162;-1.3861;5.1350;0.0000;-0.1048;0.5002
163;-1.0744;5.1349;0.0000;-0.1158;0.5095
164;-0.7629;5.1348;0.0000;-0.1377;0.4915
165;-0.4512;5.1348;0.0000;-0.1160;0.4748
166;-0.1396;5.1348;0.0000;-0.1437;0.4728
167;0.1719;5.1348;0.0000;-0.1643;0.4711
168;0.4834;5.1347;0.0000;-0.1363;0.4696
169;0.7950;5.1348;0.0000;-0.1256;0.4726
170;1.1066;5.1347;0.0000;-0.1230;0.4660
171;1.4182;5.1345;0.0000;-0.1525;0.4485
172;1.7297;5.1345;0.0000;-0.1597;0.4462
173;2.0411;5.1346;0.0000;-0.1311;0.4494
174;2.3523;5.1348;0.0000;-0.1205;0.4491
175;2.6618;5.1349;0.0000;-0.1296;0.4699
176;2.9668;5.1351;0.0000;-0.1562;0.4703
177;3.2640;5.1355;0.0000;-0.1684;0.4452
178;3.5556;5.1372;0.0000;-0.1458;0.4378
179;-4.3110;4.8680;0.0000;-0.1502;0.5444
180;-4.0118;4.8583;0.0000;-0.1360;0.5298
181;-3.7102;4.8555;0.0000;-0.1240;0.5276
182;-3.4042;4.8549;0.0000;-0.1364;0.5362
183;-3.0952;4.8548;0.0000;-0.1434;0.5112
184;-2.7848;4.8548;0.0000;-0.1378;0.4988
185;-2.4737;4.8548;0.0000;-0.1249;0.5192
186;-2.1622;4.8548;0.0000;-0.1262;0.5379
187;-1.8508;4.8547;0.0000;-0.1502;0.5429
188;-1.5393;4.8546;0.0000;-0.1290;0.5204
189;-1.2277;4.8544;0.0000;-0.0938;0.4913
190;-0.9160;4.8543;0.0000;-0.1235;0.4789
191;-0.6045;4.8543;0.0000;-0.1374;0.4663
192;-0.2929;4.8543;0.0000;-0.1325;0.4753
193;0.0186;4.8543;0.0000;-0.1557;0.4893
194;0.3300;4.8542;0.0000;-0.1527;0.4768
195;0.6416;4.8541;0.0000;-0.1168;0.4808
196;0.9532;4.8540;0.0000;-0.1118;0.4944
197;1.2648;4.8539;0.0000;-0.1416;0.4781
198;1.5762;4.8539;0.0000;-0.1686;0.4507
199;1.8876;4.8539;0.0000;-0.1369;0.4482
200;2.1990;4.8539;0.0000;-0.1218;0.4575
201;2.5091;4.8539;0.0000;-0.1524;0.4712
202;2.8154;4.8537;0.0000;-0.1506;0.4780
203;3.1121;4.8540;0.0000;-0.1590;0.4495
204;3.3896;4.8516;0.0000;-0.1660;0.4449
205;3.6287;4.8522;0.0000;-0.1477;0.4745
206;-4.4040;4.6085;0.0000;-0.1446;0.4847
207;-4.1449;4.5825;0.0000;-0.1295;0.4986
208;-3.8566;4.5778;0.0000;-0.1265;0.5142
209;-3.5555;4.5773;0.0000;-0.1338;0.5087
210;-3.2486;4.5776;0.0000;-0.1470;0.5039
211;-2.9390;4.5777;0.0000;-0.1371;0.5126
212;-2.6282;4.5776;0.0000;-0.1320;0.5261
213;-2.3170;4.5775;0.0000;-0.1291;0.5360
214;-2.0056;4.5774;0.0000;-0.1358;0.5481
215;-1.6941;4.5773;0.0000;-0.1423;0.5516
216;-1.3826;4.5773;0.0000;-0.1188;0.5269
217;-1.0710;4.5772;0.0000;-0.1089;0.4971
218;-0.7594;4.5771;0.0000;-0.1492;0.4910
219;-0.4480;4.5772;0.0000;-0.1425;0.4989
220;-0.1365;4.5769;0.0000;-0.1242;0.5081
221;0.1751;4.5769;0.0000;-0.1410;0.5158
222;0.4866;4.5768;0.0000;-0.1426;0.5125
223;0.7981;4.5767;0.0000;-0.1257;0.4982
224;1.1097;4.5765;0.0000;-0.1175;0.5011
225;1.4213;4.5765;0.0000;-0.1466;0.5055
226;1.7327;4.5765;0.0000;-0.1595;0.4895
227;2.0440;4.5764;0.0000;-0.1197;0.4758
228;2.3550;4.5764;0.0000;-0.1492;0.4809
229;2.6637;4.5762;0.0000;-0.1711;0.4896
230;2.9670;4.5762;0.0000;-0.1519;0.4874
231;3.2623;4.5762;0.0000;-0.1510;0.4919
232;3.5543;4.5646;0.0000;-0.1672;0.5074
233;-4.3286;4.3172;0.0000;-0.1438;0.5011
234;-4.0173;4.3039;0.0000;-0.1362;0.4907
235;-3.7109;4.3024;0.0000;-0.1316;0.4799
236;-3.4033;4.3025;0.0000;-0.1434;0.4796
237;-3.0940;4.3027;0.0000;-0.1494;0.5076
238;-2.7835;4.3027;0.0000;-0.1418;0.5267
239;-2.4725;4.3027;0.0000;-0.1401;0.5267
240;-2.1611;4.3026;0.0000;-0.1277;0.5292
241;-1.8496;4.3024;0.0000;-0.1316;0.5306
242;-1.5381;4.3023;0.0000;-0.1393;0.5354
243;-1.2266;4.3023;0.0000;-0.1126;0.5322
244;-0.9150;4.3023;0.0000;-0.1266;0.5237
245;-0.6035;4.3022;0.0000;-0.1443;0.5312
246;-0.2920;4.3021;0.0000;-0.1262;0.5177
247;0.0196;4.3020;0.0000;-0.1238;0.5031
248;0.3311;4.3018;0.0000;-0.1464;0.5197
249;0.6426;4.3018;0.0000;-0.1542;0.5183
250;0.9540;4.3017;0.0000;-0.1373;0.4998
251;1.2656;4.3015;0.0000;-0.1170;0.5012
252;1.5772;4.3015;0.0000;-0.1438;0.5021
253;1.8885;4.3015;0.0000;-0.1506;0.4828
254;2.1997;4.3014;0.0000;-0.1350;0.4866
255;2.5093;4.3012;0.0000;-0.1666;0.5029
256;2.8142;4.3009;0.0000;-0.1573;0.5038
257;3.1074;4.3014;0.0000;-0.1385;0.5051
258;3.3789;4.3014;0.0000;-0.1549;0.5032
259;3.6183;4.2714;0.0000;-0.1863;0.4997
260;-4.4133;4.0331;0.0000;-0.1510;0.5571
261;-4.1537;4.0322;0.0000;-0.1448;0.5428
262;-3.8602;4.0297;0.0000;-0.1434;0.5266
263;-3.5565;4.0293;0.0000;-0.1427;0.5072
264;-3.2487;4.0295;0.0000;-0.1471;0.4977
265;-2.9388;4.0295;0.0000;-0.1461;0.5068
266;-2.6280;4.0294;0.0000;-0.1496;0.5136
267;-2.3168;4.0293;0.0000;-0.1445;0.5205
268;-2.0053;4.0291;0.0000;-0.1247;0.5196
269;-1.6938;4.0290;0.0000;-0.1475;0.5062
270;-1.3824;4.0290;0.0000;-0.1415;0.5062
271;-1.0709;4.0290;0.0000;-0.1091;0.5284
272;-0.7592;4.0288;0.0000;-0.1197;0.5362
273;-0.4477;4.0288;0.0000;-0.1220;0.5167
274;-0.1361;4.0287;0.0000;-0.1305;0.5013
275;0.1754;4.0286;0.0000;-0.1556;0.5007
276;0.4868;4.0284;0.0000;-0.1505;0.4971
277;0.7983;4.0283;0.0000;-0.1411;0.4958
278;1.1098;4.0283;0.0000;-0.1281;0.4901
279;1.4214;4.0281;0.0000;-0.1330;0.4718
280;1.7328;4.0281;0.0000;-0.1611;0.4699
281;2.0440;4.0282;0.0000;-0.1398;0.4881
282;2.3547;4.0279;0.0000;-0.1392;0.5060
283;2.6624;4.0273;0.0000;-0.1604;0.5121
284;2.9626;4.0265;0.0000;-0.1548;0.5144
285;3.2490;4.0268;0.0000;-0.1447;0.5080
286;3.5234;4.0286;0.0000;-0.1729;0.4987
287;-4.3310;3.7535;0.0000;-0.1482;0.5423
288;-4.0186;3.7582;0.0000;-0.1533;0.5493
289;-3.7114;3.7574;0.0000;-0.1482;0.5419
290;-3.4035;3.7572;0.0000;-0.1404;0.5524
291;-3.0939;3.7571;0.0000;-0.1323;0.5458
292;-2.7833;3.7570;0.0000;-0.1466;0.5086
293;-2.4723;3.7570;0.0000;-0.1749;0.4945
294;-2.1612;3.7568;0.0000;-0.1577;0.5053
295;-1.8497;3.7567;0.0000;-0.1289;0.5101
296;-1.5381;3.7566;0.0000;-0.1470;0.5042
297;-1.2267;3.7565;0.0000;-0.1258;0.5133
298;-0.9151;3.7563;0.0000;-0.1069;0.5246
299;-0.6035;3.7563;0.0000;-0.1217;0.5228
300;-0.2919;3.7563;0.0000;-0.1262;0.5272
301;0.0196;3.7562;0.0000;-0.1471;0.5255
302;0.3310;3.7561;0.0000;-0.1526;0.5065
303;0.6425;3.7560;0.0000;-0.1415;0.5003
304;0.9540;3.7559;0.0000;-0.1392;0.5036
305;1.2655;3.7558;0.0000;-0.1429;0.4793
306;1.5770;3.7559;0.0000;-0.1546;0.4741
307;1.8884;3.7558;0.0000;-0.1453;0.5058
308;2.1995;3.7555;0.0000;-0.1287;0.5171
309;2.5091;3.7549;0.0000;-0.1494;0.5148
310;2.8135;3.7536;0.0000;-0.1698;0.5104
311;3.1057;3.7522;0.0000;-0.1619;0.5117
312;3.3764;3.7548;0.0000;-0.1473;0.5198
313;3.6167;3.7893;0.0000;-0.1781;0.5156
314;-4.4052;3.4684;0.0000;-0.1461;0.5406
315;-4.1459;3.4852;0.0000;-0.1576;0.5585
316;-3.8569;3.4859;0.0000;-0.1633;0.5643
317;-3.5553;3.4853;0.0000;-0.1442;0.5623
318;-3.2482;3.4851;0.0000;-0.1400;0.5499
319;-2.9385;3.4851;0.0000;-0.1275;0.5193
320;-2.6278;3.4852;0.0000;-0.1461;0.5138
321;-2.3166;3.4850;0.0000;-0.1777;0.5284
322;-2.0053;3.4848;0.0000;-0.1547;0.5299
323;-1.6938;3.4846;0.0000;-0.1408;0.5249
324;-1.3824;3.4846;0.0000;-0.1460;0.5235
325;-1.0708;3.4845;0.0000;-0.1185;0.5121
326;-0.7593;3.4844;0.0000;-0.1190;0.5109
327;-0.4477;3.4843;0.0000;-0.1275;0.5348
328;-0.1362;3.4842;0.0000;-0.1309;0.5401
329;0.1753;3.4841;0.0000;-0.1418;0.5285
330;0.4868;3.4841;0.0000;-0.1486;0.5366
331;0.7983;3.4839;0.0000;-0.1495;0.5419
332;1.1098;3.4839;0.0000;-0.1461;0.5139
333;1.4213;3.4839;0.0000;-0.1594;0.5026
334;1.7326;3.4838;0.0000;-0.1527;0.5202
335;2.0440;3.4837;0.0000;-0.1313;0.5289
336;2.3547;3.4833;0.0000;-0.1445;0.5344
337;2.6631;3.4822;0.0000;-0.1706;0.5316
338;2.9658;3.4806;0.0000;-0.1785;0.5239
339;3.2602;3.4811;0.0000;-0.1527;0.5294
340;3.5511;3.4993;0.0000;-0.1452;0.5261
341;-4.3102;3.2083;0.0000;-0.1500;0.5825
342;-4.0096;3.2126;0.0000;-0.1633;0.5887
343;-3.7081;3.2131;0.0000;-0.1582;0.5895
344;-3.4023;3.2132;0.0000;-0.1529;0.5748
345;-3.0936;3.2133;0.0000;-0.1300;0.5633
346;-2.7831;3.2134;0.0000;-0.1123;0.5749
347;-2.4720;3.2132;0.0000;-0.1569;0.5817
348;-2.1608;3.2130;0.0000;-0.1839;0.5703
349;-1.8496;3.2129;0.0000;-0.1508;0.5561
350;-1.5380;3.2129;0.0000;-0.1423;0.5492
351;-1.2266;3.2128;0.0000;-0.1461;0.5402
352;-0.9151;3.2127;0.0000;-0.1188;0.5206
353;-0.6035;3.2126;0.0000;-0.1228;0.5143
354;-0.2919;3.2124;0.0000;-0.1256;0.5194
355;0.0196;3.2124;0.0000;-0.1310;0.5200
356;0.3311;3.2123;0.0000;-0.1419;0.5317
357;0.6426;3.2121;0.0000;-0.1562;0.5374
358;0.9540;3.2121;0.0000;-0.1593;0.5254
359;1.2654;3.2122;0.0000;-0.1583;0.5280
360;1.5769;3.2121;0.0000;-0.1641;0.5400
361;1.8883;3.2120;0.0000;-0.1507;0.5418
362;2.1994;3.2117;0.0000;-0.1444;0.5409
363;2.5093;3.2110;0.0000;-0.1562;0.5404
364;2.8152;3.2099;0.0000;-0.1687;0.5420
365;3.1119;3.2091;0.0000;-0.1638;0.5421
366;3.3899;3.2136;0.0000;-0.1458;0.5412
367;3.6285;3.2186;0.0000;-0.1362;0.5421
368;-4.4313;2.9462;0.0000;-0.1563;0.5483
369;-4.1502;2.9420;0.0000;-0.1428;0.5516
370;-3.8569;2.9411;0.0000;-0.1427;0.5609
371;-3.5548;2.9411;0.0000;-0.1504;0.5694
372;-3.2479;2.9413;0.0000;-0.1596;0.5774
373;-2.9384;2.9415;0.0000;-0.1383;0.5925
374;-2.6277;2.9414;0.0000;-0.1369;0.5941
375;-2.3165;2.9413;0.0000;-0.1665;0.5643
376;-2.0052;2.9412;0.0000;-0.1656;0.5456
377;-1.6938;2.9411;0.0000;-0.1395;0.5627
378;-1.3823;2.9411;0.0000;-0.1431;0.5698
379;-1.0709;2.9410;0.0000;-0.1381;0.5447
380;-0.7592;2.9410;0.0000;-0.1147;0.5242
381;-0.4477;2.9409;0.0000;-0.1392;0.5141
382;-0.1363;2.9408;0.0000;-0.1343;0.5152
383;0.1753;2.9407;0.0000;-0.1244;0.5257
384;0.4868;2.9405;0.0000;-0.1381;0.5164
385;0.7983;2.9405;0.0000;-0.1553;0.4973
386;1.1098;2.9405;0.0000;-0.1571;0.5056
387;1.4213;2.9404;0.0000;-0.1553;0.5372
388;1.7326;2.9403;0.0000;-0.1701;0.5517
389;2.0439;2.9401;0.0000;-0.1654;0.5371
390;2.3546;2.9398;0.0000;-0.1493;0.5086
391;2.6635;2.9391;0.0000;-0.1580;0.4910
392;2.9678;2.9384;0.0000;-0.1601;0.5032
393;3.2650;2.9386;0.0000;-0.1577;0.5213
394;3.5562;2.9402;0.0000;-0.1487;0.5379
395;-4.3096;2.6795;0.0000;-0.1416;0.4763
396;-4.0091;2.6703;0.0000;-0.1269;0.4930
397;-3.7076;2.6692;0.0000;-0.1463;0.5101
398;-3.4020;2.6695;0.0000;-0.1586;0.5224
399;-3.0933;2.6697;0.0000;-0.1576;0.5253
400;-2.7831;2.6697;0.0000;-0.1495;0.5293
401;-2.4722;2.6697;0.0000;-0.1558;0.5302
402;-2.1610;2.6696;0.0000;-0.1706;0.5007
403;-1.8497;2.6695;0.0000;-0.1627;0.4832
404;-1.5382;2.6694;0.0000;-0.1355;0.5063
405;-1.2266;2.6693;0.0000;-0.1343;0.5133
406;-0.9152;2.6695;0.0000;-0.1227;0.5025
407;-0.6035;2.6693;0.0000;-0.1308;0.5015
408;-0.2921;2.6693;0.0000;-0.1448;0.5140
409;0.0194;2.6692;0.0000;-0.1186;0.5270
410;0.3311;2.6690;0.0000;-0.1167;0.5164
411;0.6426;2.6690;0.0000;-0.1482;0.5052
412;0.9540;2.6690;0.0000;-0.1687;0.5156
413;1.2654;2.6689;0.0000;-0.1579;0.5224
414;1.5769;2.6687;0.0000;-0.1531;0.5171
415;1.8882;2.6686;0.0000;-0.1693;0.5068
416;2.1993;2.6685;0.0000;-0.1537;0.4845
417;2.5092;2.6682;0.0000;-0.1437;0.4686
418;2.8151;2.6677;0.0000;-0.1572;0.4722
419;3.1110;2.6676;0.0000;-0.1570;0.4837
420;3.3877;2.6642;0.0000;-0.1559;0.4973
421;3.6240;2.6592;0.0000;-0.1622;0.5003
422;-4.4036;2.4231;0.0000;-0.1528;0.4390
423;-4.1447;2.4004;0.0000;-0.1311;0.4468
424;-3.8557;2.3973;0.0000;-0.1350;0.4579
425;-3.5546;2.3975;0.0000;-0.1607;0.4745
426;-3.2479;2.3980;0.0000;-0.1613;0.4818
427;-2.9384;2.3982;0.0000;-0.1576;0.4784
428;-2.6278;2.3982;0.0000;-0.1494;0.4690
429;-2.3166;2.3981;0.0000;-0.1518;0.4693
430;-2.0053;2.3982;0.0000;-0.1685;0.4685
431;-1.6939;2.3981;0.0000;-0.1598;0.4635
432;-1.3825;2.3979;0.0000;-0.1145;0.4644
433;-1.0708;2.3980;0.0000;-0.1179;0.4749
434;-0.7593;2.3980;0.0000;-0.1411;0.4867
435;-0.4479;2.3979;0.0000;-0.1539;0.4933
436;-0.1364;2.3976;0.0000;-0.1271;0.5073
437;0.1753;2.3975;0.0000;-0.1143;0.5110
438;0.4868;2.3975;0.0000;-0.1361;0.5098
439;0.7983;2.3974;0.0000;-0.1558;0.5278
440;1.1097;2.3973;0.0000;-0.1671;0.5393
441;1.4211;2.3973;0.0000;-0.1519;0.5214
442;1.7326;2.3972;0.0000;-0.1429;0.4920
443;2.0439;2.3971;0.0000;-0.1555;0.4780
444;2.3546;2.3970;0.0000;-0.1547;0.4779
445;2.6629;2.3966;0.0000;-0.1545;0.4858
446;2.9653;2.3964;0.0000;-0.1551;0.4937
447;3.2583;2.3957;0.0000;-0.1537;0.4928
448;3.5480;2.3793;0.0000;-0.1612;0.4876
449;-4.3285;2.1369;0.0000;-0.1758;0.4992
450;-4.0171;2.1267;0.0000;-0.1310;0.4769
451;-3.7105;2.1260;0.0000;-0.1314;0.4673
452;-3.4029;2.1264;0.0000;-0.1520;0.4609
453;-3.0937;2.1267;0.0000;-0.1643;0.4638
454;-2.7833;2.1268;0.0000;-0.1666;0.4671
455;-2.4724;2.1268;0.0000;-0.1451;0.4643
456;-2.1610;2.1268;0.0000;-0.1514;0.4762
457;-1.8496;2.1267;0.0000;-0.1532;0.4967
458;-1.5381;2.1265;0.0000;-0.1276;0.5066
459;-1.2265;2.1265;0.0000;-0.1078;0.5128
460;-0.9150;2.1265;0.0000;-0.1318;0.5210
461;-0.6035;2.1264;0.0000;-0.1563;0.5252
462;-0.2921;2.1263;0.0000;-0.1479;0.5206
463;0.0194;2.1261;0.0000;-0.1317;0.5123
464;0.3310;2.1260;0.0000;-0.1363;0.5170
465;0.6425;2.1259;0.0000;-0.1424;0.5202
466;0.9540;2.1258;0.0000;-0.1528;0.5195
467;1.2654;2.1257;0.0000;-0.1602;0.5209
468;1.5768;2.1257;0.0000;-0.1372;0.5055
469;1.8883;2.1257;0.0000;-0.1343;0.4990
470;2.1994;2.1256;0.0000;-0.1502;0.5148
471;2.5088;2.1253;0.0000;-0.1641;0.5197
472;2.8132;2.1248;0.0000;-0.1568;0.5136
473;3.1050;2.1245;0.0000;-0.1565;0.5221
474;3.3745;2.1241;0.0000;-0.1612;0.5277
475;3.6137;2.0881;0.0000;-0.1515;0.5199
476;-4.4128;1.8601;0.0000;-0.1897;0.5394
477;-4.1528;1.8556;0.0000;-0.1535;0.5305
478;-3.8594;1.8552;0.0000;-0.1264;0.5005
479;-3.5560;1.8551;0.0000;-0.1365;0.4771
480;-3.2483;1.8553;0.0000;-0.1545;0.4795
481;-2.9385;1.8554;0.0000;-0.1704;0.4857
482;-2.6279;1.8554;0.0000;-0.1549;0.4975
483;-2.3166;1.8553;0.0000;-0.1432;0.5092
484;-2.0053;1.8553;0.0000;-0.1569;0.5246
485;-1.6939;1.8551;0.0000;-0.1420;0.5442
486;-1.3824;1.8549;0.0000;-0.1202;0.5463
487;-1.0708;1.8549;0.0000;-0.1182;0.5467
488;-0.7592;1.8549;0.0000;-0.1284;0.5453
489;-0.4477;1.8547;0.0000;-0.1484;0.5464
490;-0.1363;1.8546;0.0000;-0.1615;0.5431
491;0.1752;1.8545;0.0000;-0.1599;0.5263
492;0.4866;1.8543;0.0000;-0.1435;0.5139
493;0.7981;1.8543;0.0000;-0.1352;0.5039
494;1.1096;1.8542;0.0000;-0.1515;0.5056
495;1.4211;1.8542;0.0000;-0.1386;0.5121
496;1.7326;1.8542;0.0000;-0.1224;0.5216
497;2.0440;1.8541;0.0000;-0.1316;0.5430
498;2.3546;1.8538;0.0000;-0.1613;0.5597
499;2.6621;1.8531;0.0000;-0.1657;0.5668
500;2.9619;1.8519;0.0000;-0.1505;0.5631
501;3.2473;1.8512;0.0000;-0.1590;0.5515
502;3.5179;1.8552;0.0000;-0.1615;0.5438
503;-4.3285;1.5754;0.0000;-0.1738;0.5059
504;-4.0170;1.5837;0.0000;-0.1490;0.5203
505;-3.7105;1.5841;0.0000;-0.1367;0.5140
506;-3.4029;1.5839;0.0000;-0.1427;0.5105
507;-3.0936;1.5839;0.0000;-0.1549;0.5198
508;-2.7833;1.5839;0.0000;-0.1652;0.5226
509;-2.4723;1.5838;0.0000;-0.1502;0.5226
510;-2.1609;1.5837;0.0000;-0.1471;0.5369
511;-1.8495;1.5835;0.0000;-0.1450;0.5440
512;-1.5381;1.5833;0.0000;-0.1369;0.5325
513;-1.2265;1.5833;0.0000;-0.1368;0.5367
514;-0.9151;1.5833;0.0000;-0.1362;0.5473
515;-0.6035;1.5832;0.0000;-0.1256;0.5412
516;-0.2919;1.5830;0.0000;-0.1425;0.5303
517;0.0195;1.5829;0.0000;-0.1633;0.5119
518;0.3309;1.5829;0.0000;-0.1551;0.4903
519;0.6424;1.5828;0.0000;-0.1363;0.4988
520;0.9539;1.5828;0.0000;-0.1487;0.5133
521;1.2653;1.5826;0.0000;-0.1439;0.5128
522;1.5769;1.5826;0.0000;-0.1236;0.5244
523;1.8884;1.5825;0.0000;-0.1316;0.5428
524;2.1994;1.5823;0.0000;-0.1499;0.5593
525;2.5089;1.5816;0.0000;-0.1654;0.5710
526;2.8134;1.5801;0.0000;-0.1492;0.5723
527;3.1063;1.5784;0.0000;-0.1398;0.5556
528;3.3790;1.5805;0.0000;-0.1604;0.5299
529;3.6208;1.6293;0.0000;-0.1641;0.5222
530;-4.4020;1.2859;0.0000;-0.1700;0.5171
531;-4.1442;1.3095;0.0000;-0.1614;0.5159
532;-3.8557;1.3124;0.0000;-0.1534;0.5193
533;-3.5547;1.3124;0.0000;-0.1454;0.5239
534;-3.2478;1.3124;0.0000;-0.1431;0.5233
535;-2.9383;1.3123;0.0000;-0.1463;0.5222
536;-2.6277;1.3123;0.0000;-0.1686;0.5189
537;-2.3166;1.3122;0.0000;-0.1557;0.5166
538;-2.0052;1.3120;0.0000;-0.1312;0.5075
539;-1.6937;1.3119;0.0000;-0.1384;0.4883
540;-1.3822;1.3117;0.0000;-0.1405;0.4910
541;-1.0708;1.3116;0.0000;-0.1581;0.5127
542;-0.7594;1.3116;0.0000;-0.1389;0.5087
543;-0.4478;1.3115;0.0000;-0.1218;0.4836
544;-0.1362;1.3114;0.0000;-0.1331;0.4692
545;0.1753;1.3115;0.0000;-0.1366;0.4666
546;0.4869;1.3114;0.0000;-0.1398;0.4734
547;0.7983;1.3112;0.0000;-0.1572;0.4803
548;1.1097;1.3111;0.0000;-0.1547;0.4862
549;1.4212;1.3111;0.0000;-0.1381;0.5036
550;1.7327;1.3110;0.0000;-0.1363;0.5128
551;2.0440;1.3108;0.0000;-0.1387;0.5053
552;2.3547;1.3103;0.0000;-0.1650;0.5022
553;2.6631;1.3091;0.0000;-0.1599;0.4923
554;2.9661;1.3071;0.0000;-0.1427;0.4900
555;3.2608;1.3079;0.0000;-0.1441;0.4949
556;3.5522;1.3264;0.0000;-0.1643;0.4889
557;-4.3084;1.0288;0.0000;-0.1681;0.5336
558;-4.0086;1.0387;0.0000;-0.1621;0.5078
559;-3.7074;1.0404;0.0000;-0.1492;0.4948
560;-3.4018;1.0407;0.0000;-0.1555;0.4879
561;-3.0933;1.0408;0.0000;-0.1430;0.4749
562;-2.7831;1.0408;0.0000;-0.1503;0.4734
563;-2.4722;1.0407;0.0000;-0.1650;0.4854
564;-2.1609;1.0406;0.0000;-0.1290;0.4931
565;-1.8493;1.0405;0.0000;-0.1255;0.4742
566;-1.5379;1.0404;0.0000;-0.1438;0.4550
567;-1.2264;1.0403;0.0000;-0.1483;0.4502
568;-0.9150;1.0401;0.0000;-0.1469;0.4552
569;-0.6034;1.0402;0.0000;-0.1310;0.4553
570;-0.2919;1.0401;0.0000;-0.1330;0.4403
571;0.0196;1.0401;0.0000;-0.1419;0.4467
572;0.3311;1.0401;0.0000;-0.1374;0.4635
573;0.6426;1.0400;0.0000;-0.1504;0.4585
574;0.9540;1.0399;0.0000;-0.1592;0.4469
575;1.2655;1.0397;0.0000;-0.1483;0.4611
576;1.5770;1.0395;0.0000;-0.1398;0.4774
577;1.8884;1.0395;0.0000;-0.1275;0.4718
578;2.1997;1.0392;0.0000;-0.1487;0.4657
579;2.5096;1.0384;0.0000;-0.1668;0.4538
580;2.8159;1.0364;0.0000;-0.1493;0.4428
581;3.1125;1.0341;0.0000;-0.1350;0.4453
582;3.3883;1.0401;0.0000;-0.1584;0.4621
583;3.6262;1.0519;0.0000;-0.1642;0.4789
584;-4.4299;0.7601;0.0000;-0.1835;0.4811
585;-4.1492;0.7666;0.0000;-0.1715;0.4730
586;-3.8563;0.7683;0.0000;-0.1542;0.4700
587;-3.5545;0.7690;0.0000;-0.1527;0.4658
588;-3.2478;0.7693;0.0000;-0.1555;0.4673
589;-2.9383;0.7695;0.0000;-0.1360;0.4739
590;-2.6276;0.7694;0.0000;-0.1564;0.4851
591;-2.3165;0.7692;0.0000;-0.1469;0.4937
592;-2.0051;0.7691;0.0000;-0.1189;0.4837
593;-1.6936;0.7691;0.0000;-0.1441;0.4588
594;-1.3821;0.7690;0.0000;-0.1438;0.4362
595;-1.0706;0.7689;0.0000;-0.1315;0.4248
596;-0.7591;0.7688;0.0000;-0.1379;0.4433
597;-0.4476;0.7688;0.0000;-0.1384;0.4503
598;-0.1361;0.7688;0.0000;-0.1448;0.4433
599;0.1753;0.7687;0.0000;-0.1511;0.4542
600;0.4868;0.7686;0.0000;-0.1393;0.4553
601;0.7984;0.7685;0.0000;-0.1516;0.4514
602;1.1098;0.7684;0.0000;-0.1564;0.4484
603;1.4212;0.7682;0.0000;-0.1416;0.4370
604;1.7328;0.7681;0.0000;-0.1271;0.4372
605;2.0442;0.7679;0.0000;-0.1344;0.4476
606;2.3553;0.7674;0.0000;-0.1531;0.4446
607;2.6652;0.7659;0.0000;-0.1453;0.4434
608;2.9722;0.7622;0.0000;-0.1453;0.4433
609;3.2727;0.7595;0.0000;-0.1449;0.4454
610;3.5615;0.7683;0.0000;-0.1739;0.4715
611;-4.3089;0.5005;0.0000;-0.1848;0.4499
612;-4.0088;0.4967;0.0000;-0.1671;0.4702
613;-3.7074;0.4972;0.0000;-0.1539;0.4758
614;-3.4019;0.4976;0.0000;-0.1595;0.4768
615;-3.0933;0.4979;0.0000;-0.1461;0.4908
616;-2.7831;0.4979;0.0000;-0.1411;0.4936
617;-2.4721;0.4978;0.0000;-0.1485;0.4749
618;-2.1608;0.4976;0.0000;-0.1293;0.4546
619;-1.8493;0.4977;0.0000;-0.1442;0.4492
620;-1.5379;0.4977;0.0000;-0.1605;0.4452
621;-1.2265;0.4977;0.0000;-0.1295;0.4359
622;-0.9149;0.4975;0.0000;-0.1233;0.4333
623;-0.6034;0.4974;0.0000;-0.1379;0.4401
624;-0.2918;0.4975;0.0000;-0.1349;0.4505
625;0.0197;0.4974;0.0000;-0.1558;0.4564
626;0.3311;0.4973;0.0000;-0.1484;0.4518
627;0.6426;0.4972;0.0000;-0.1424;0.4482
628;0.9541;0.4971;0.0000;-0.1539;0.4572
629;1.2655;0.4970;0.0000;-0.1444;0.4455
630;1.5770;0.4969;0.0000;-0.1297;0.4263
631;1.8886;0.4968;0.0000;-0.1376;0.4260
632;2.2000;0.4965;0.0000;-0.1414;0.4285
633;2.5117;0.4957;0.0000;-0.1179;0.4366
634;2.8243;0.4937;0.0000;-0.1360;0.4414
635;3.1400;0.4909;0.0000;-0.1571;0.4403
636;3.4656;0.4990;0.0000;-0.1698;0.4320
637;-4.4041;0.2403;0.0000;-0.1687;0.4538
638;-4.1448;0.2249;0.0000;-0.1683;0.4488
639;-3.8558;0.2247;0.0000;-0.1753;0.4634
640;-3.5546;0.2257;0.0000;-0.1702;0.4691
641;-3.2477;0.2263;0.0000;-0.1620;0.4550
642;-2.9383;0.2264;0.0000;-0.1420;0.4511
643;-2.6276;0.2265;0.0000;-0.1496;0.4430
644;-2.3165;0.2264;0.0000;-0.1419;0.4215
645;-2.0050;0.2264;0.0000;-0.1378;0.4189
646;-1.6936;0.2264;0.0000;-0.1591;0.4344
647;-1.3822;0.2263;0.0000;-0.1356;0.4413
648;-1.0706;0.2263;0.0000;-0.1119;0.4305
649;-0.7590;0.2262;0.0000;-0.1303;0.4195
650;-0.4475;0.2261;0.0000;-0.1424;0.4467
651;-0.1361;0.2260;0.0000;-0.1529;0.4687
652;0.1754;0.2259;0.0000;-0.1459;0.4553
653;0.4869;0.2259;0.0000;-0.1347;0.4558
654;0.7984;0.2258;0.0000;-0.1475;0.4689
655;1.1099;0.2256;0.0000;-0.1451;0.4656
656;1.4214;0.2256;0.0000;-0.1365;0.4596
657;1.7329;0.2256;0.0000;-0.1326;0.4458
658;2.0445;0.2254;0.0000;-0.1500;0.4364
659;2.3561;0.2250;0.0000;-0.1318;0.4551
660;2.6685;0.2242;0.0000;-0.1143;0.4646
661;2.9823;0.2228;0.0000;-0.1508;0.4604
662;3.2972;0.2233;0.0000;-0.1657;0.4598
663;3.5987;0.2433;0.0000;-0.1652;0.4388
664;-4.3292;-0.0422;0.0000;-0.1458;0.4311
665;-4.0169;-0.0465;0.0000;-0.1720;0.4283
666;-3.7102;-0.0458;0.0000;-0.1862;0.4344
667;-3.4027;-0.0452;0.0000;-0.1852;0.4395
668;-3.0936;-0.0449;0.0000;-0.1497;0.4382
669;-2.7830;-0.0448;0.0000;-0.1377;0.4353
670;-2.4720;-0.0449;0.0000;-0.1563;0.4346
671;-2.1607;-0.0449;0.0000;-0.1486;0.4295
672;-1.8493;-0.0449;0.0000;-0.1482;0.4294
673;-1.5379;-0.0450;0.0000;-0.1415;0.4369
674;-1.2264;-0.0450;0.0000;-0.1190;0.4414
675;-0.9148;-0.0450;0.0000;-0.1216;0.4341
676;-0.6032;-0.0451;0.0000;-0.1332;0.4402
677;-0.2917;-0.0454;0.0000;-0.1430;0.4575
678;0.0198;-0.0455;0.0000;-0.1428;0.4510
679;0.3313;-0.0454;0.0000;-0.1341;0.4542
680;0.6428;-0.0456;0.0000;-0.1467;0.4760
681;0.9542;-0.0457;0.0000;-0.1488;0.4723
682;1.2657;-0.0458;0.0000;-0.1421;0.4671
683;1.5772;-0.0459;0.0000;-0.1316;0.4669
684;1.8888;-0.0458;0.0000;-0.1367;0.4598
685;2.2005;-0.0461;0.0000;-0.1493;0.4606
686;2.5128;-0.0464;0.0000;-0.1290;0.4644
687;2.8273;-0.0468;0.0000;-0.1336;0.4745
688;3.1468;-0.0468;0.0000;-0.1552;0.4874
689;3.4766;-0.0481;0.0000;-0.1601;0.4934
690;-4.4081;-0.3209;0.0000;-0.1494;0.4245
691;-4.1506;-0.3186;0.0000;-0.1630;0.4283
692;-3.8581;-0.3165;0.0000;-0.1647;0.4167
693;-3.5552;-0.3163;0.0000;-0.1857;0.4004
694;-3.2479;-0.3162;0.0000;-0.1809;0.4114
695;-2.9382;-0.3162;0.0000;-0.1512;0.4312
696;-2.6275;-0.3162;0.0000;-0.1555;0.4412
697;-2.3164;-0.3162;0.0000;-0.1654;0.4463
698;-2.0050;-0.3162;0.0000;-0.1437;0.4424
699;-1.6936;-0.3163;0.0000;-0.1285;0.4324
700;-1.3820;-0.3163;0.0000;-0.1248;0.4359
701;-1.0705;-0.3164;0.0000;-0.1214;0.4576
702;-0.7589;-0.3164;0.0000;-0.1359;0.4571
703;-0.4474;-0.3166;0.0000;-0.1409;0.4332
704;-0.1359;-0.3168;0.0000;-0.1358;0.4345
705;0.1756;-0.3168;0.0000;-0.1369;0.4663
706;0.4871;-0.3169;0.0000;-0.1428;0.4905
707;0.7986;-0.3171;0.0000;-0.1478;0.4825
708;1.1101;-0.3171;0.0000;-0.1373;0.4644
709;1.4216;-0.3172;0.0000;-0.1345;0.4635
710;1.7332;-0.3172;0.0000;-0.1364;0.4796
711;2.0447;-0.3173;0.0000;-0.1525;0.4854
712;2.3565;-0.3175;0.0000;-0.1360;0.4734
713;2.6693;-0.3175;0.0000;-0.1183;0.4780
714;2.9833;-0.3173;0.0000;-0.1382;0.4896
715;3.2966;-0.3177;0.0000;-0.1548;0.4937
716;3.5980;-0.3416;0.0000;-0.1834;0.4902
717;-4.3247;-0.6020;0.0000;-0.1779;0.4260
718;-4.0141;-0.5874;0.0000;-0.1619;0.4246
719;-3.7088;-0.5870;0.0000;-0.1592;0.4243
720;-3.4020;-0.5871;0.0000;-0.1738;0.4217
721;-3.0931;-0.5873;0.0000;-0.1739;0.4223
722;-2.7829;-0.5874;0.0000;-0.1736;0.4312
723;-2.4719;-0.5876;0.0000;-0.1741;0.4387
724;-2.1607;-0.5876;0.0000;-0.1553;0.4455
725;-1.8492;-0.5876;0.0000;-0.1218;0.4512
726;-1.5377;-0.5876;0.0000;-0.1204;0.4502
727;-1.2262;-0.5877;0.0000;-0.1196;0.4565
728;-0.9145;-0.5878;0.0000;-0.1256;0.4675
729;-0.6031;-0.5878;0.0000;-0.1543;0.4520
730;-0.2916;-0.5880;0.0000;-0.1333;0.4422
731;0.0200;-0.5882;0.0000;-0.1215;0.4698
732;0.3315;-0.5883;0.0000;-0.1438;0.4787
733;0.6430;-0.5885;0.0000;-0.1482;0.4527
734;0.9544;-0.5885;0.0000;-0.1391;0.4471
735;1.2659;-0.5885;0.0000;-0.1331;0.4624
736;1.5775;-0.5887;0.0000;-0.1346;0.4883
737;1.8890;-0.5888;0.0000;-0.1509;0.5064
738;2.2007;-0.5888;0.0000;-0.1464;0.4959
739;2.5130;-0.5889;0.0000;-0.1213;0.4800
740;2.8266;-0.5888;0.0000;-0.1233;0.4710
741;3.1427;-0.5895;0.0000;-0.1360;0.4751
742;3.4640;-0.5932;0.0000;-0.1725;0.4772
743;-4.3984;-0.8930;0.0000;-0.1888;0.4349
744;-4.1386;-0.8589;0.0000;-0.1704;0.4433
745;-3.8523;-0.8579;0.0000;-0.1570;0.4529
746;-3.5529;-0.8584;0.0000;-0.1611;0.4671
747;-3.2468;-0.8586;0.0000;-0.1670;0.4671
748;-2.9377;-0.8587;0.0000;-0.1807;0.4566
749;-2.6273;-0.8588;0.0000;-0.1805;0.4517
750;-2.3163;-0.8589;0.0000;-0.1743;0.4537
751;-2.0050;-0.8589;0.0000;-0.1425;0.4611
752;-1.6935;-0.8590;0.0000;-0.1266;0.4691
753;-1.3819;-0.8590;0.0000;-0.1275;0.4808
754;-1.0704;-0.8592;0.0000;-0.1126;0.4798
755;-0.7588;-0.8593;0.0000;-0.1386;0.4737
756;-0.4473;-0.8593;0.0000;-0.1437;0.4700
757;-0.1358;-0.8595;0.0000;-0.1106;0.4701
758;0.1758;-0.8597;0.0000;-0.1362;0.4740
759;0.4873;-0.8597;0.0000;-0.1433;0.4611
760;0.7988;-0.8598;0.0000;-0.1324;0.4473
761;1.1104;-0.8599;0.0000;-0.1352;0.4526
762;1.4218;-0.8600;0.0000;-0.1430;0.4598
763;1.7333;-0.8603;0.0000;-0.1530;0.4703
764;2.0448;-0.8603;0.0000;-0.1522;0.4888
765;2.3566;-0.8603;0.0000;-0.1188;0.4907
766;2.6689;-0.8604;0.0000;-0.1039;0.4697
767;2.9809;-0.8611;0.0000;-0.1277;0.4582
768;3.2891;-0.8656;0.0000;-0.1501;0.4586
769;3.5756;-0.8491;0.0000;-0.1887;0.4567
770;-4.2937;-1.1298;0.0000;-0.1743;0.4793
771;-4.0011;-1.1305;0.0000;-0.1608;0.4757
772;-3.7039;-1.1305;0.0000;-0.1540;0.4719
773;-3.4001;-1.1303;0.0000;-0.1637;0.4731
774;-3.0923;-1.1301;0.0000;-0.1767;0.4731
775;-2.7825;-1.1302;0.0000;-0.1769;0.4798
776;-2.4716;-1.1303;0.0000;-0.1712;0.4920
777;-2.1605;-1.1303;0.0000;-0.1627;0.4888
778;-1.8491;-1.1304;0.0000;-0.1521;0.4836
779;-1.5377;-1.1305;0.0000;-0.1415;0.4984
780;-1.2262;-1.1306;0.0000;-0.1203;0.5069
781;-0.9145;-1.1307;0.0000;-0.1225;0.4958
782;-0.6030;-1.1307;0.0000;-0.1455;0.4901
783;-0.2916;-1.1308;0.0000;-0.1274;0.4761
784;0.0201;-1.1310;0.0000;-0.1192;0.4545
785;0.3316;-1.1312;0.0000;-0.1293;0.4583
786;0.6431;-1.1313;0.0000;-0.1311;0.4725
787;0.9547;-1.1313;0.0000;-0.1395;0.4720
788;1.2661;-1.1313;0.0000;-0.1442;0.4660
789;1.5776;-1.1314;0.0000;-0.1432;0.4616
790;1.8892;-1.1317;0.0000;-0.1475;0.4608
791;2.2009;-1.1318;0.0000;-0.1315;0.4658
792;2.5134;-1.1318;0.0000;-0.1018;0.4717
793;2.8280;-1.1317;0.0000;-0.1171;0.4707
794;3.1483;-1.1328;0.0000;-0.1443;0.4565
795;3.4867;-1.1369;0.0000;-0.1630;0.4491
796;-4.3971;-1.3651;0.0000;-0.1581;0.5164
797;-4.1372;-1.4017;0.0000;-0.1582;0.5044
798;-3.8513;-1.4034;0.0000;-0.1496;0.4978
799;-3.5521;-1.4025;0.0000;-0.1505;0.4858
800;-3.2463;-1.4019;0.0000;-0.1755;0.4715
801;-2.9374;-1.4017;0.0000;-0.1839;0.4737
802;-2.6270;-1.4018;0.0000;-0.1663;0.4781
803;-2.3160;-1.4019;0.0000;-0.1587;0.4825
804;-2.0046;-1.4018;0.0000;-0.1535;0.4953
805;-1.6932;-1.4019;0.0000;-0.1516;0.5079
806;-1.3817;-1.4021;0.0000;-0.1445;0.5088
807;-1.0702;-1.4022;0.0000;-0.1307;0.5017
808;-0.7587;-1.4022;0.0000;-0.1362;0.4996
809;-0.4472;-1.4022;0.0000;-0.1475;0.4992
810;-0.1358;-1.4023;0.0000;-0.1397;0.4787
811;0.1758;-1.4024;0.0000;-0.1129;0.4612
812;0.4874;-1.4025;0.0000;-0.1163;0.4679
813;0.7989;-1.4027;0.0000;-0.1389;0.4741
814;1.1104;-1.4027;0.0000;-0.1429;0.4709
815;1.4219;-1.4028;0.0000;-0.1356;0.4754
816;1.7335;-1.4030;0.0000;-0.1332;0.4791
817;2.0451;-1.4031;0.0000;-0.1333;0.4629
818;2.3568;-1.4031;0.0000;-0.1183;0.4460
819;2.6688;-1.4029;0.0000;-0.1140;0.4485
820;2.9804;-1.4025;0.0000;-0.1315;0.4556
821;3.2879;-1.4026;0.0000;-0.1480;0.4661
822;3.5716;-1.4251;0.0000;-0.1683;0.4807
823;-4.3239;-1.6563;0.0000;-0.1430;0.5229
824;-4.0130;-1.6738;0.0000;-0.1383;0.4961
825;-3.7078;-1.6746;0.0000;-0.1405;0.4852
826;-3.4012;-1.6736;0.0000;-0.1708;0.4874
827;-3.0925;-1.6732;0.0000;-0.1813;0.4812
828;-2.7823;-1.6731;0.0000;-0.1617;0.4638
829;-2.4714;-1.6732;0.0000;-0.1519;0.4491
830;-2.1601;-1.6733;0.0000;-0.1591;0.4623
831;-1.8488;-1.6734;0.0000;-0.1570;0.4837
832;-1.5373;-1.6735;0.0000;-0.1577;0.4783
833;-1.2259;-1.6737;0.0000;-0.1478;0.4730
834;-0.9144;-1.6737;0.0000;-0.1418;0.4891
835;-0.6029;-1.6737;0.0000;-0.1377;0.5045
836;-0.2914;-1.6737;0.0000;-0.1489;0.5143
837;0.0200;-1.6738;0.0000;-0.1357;0.5149
838;0.3316;-1.6740;0.0000;-0.1103;0.5081
839;0.6432;-1.6741;0.0000;-0.1151;0.4953
840;0.9548;-1.6741;0.0000;-0.1309;0.4791
841;1.2663;-1.6741;0.0000;-0.1440;0.4708
842;1.5778;-1.6743;0.0000;-0.1309;0.4602
843;1.8894;-1.6745;0.0000;-0.1238;0.4510
844;2.2011;-1.6745;0.0000;-0.1274;0.4406
845;2.5132;-1.6744;0.0000;-0.1218;0.4267
846;2.8259;-1.6743;0.0000;-0.1262;0.4300
847;3.1404;-1.6744;0.0000;-0.1385;0.4477
848;3.4614;-1.6802;0.0000;-0.1686;0.4615
849;-4.4073;-1.9375;0.0000;-0.1432;0.5260
850;-4.1500;-1.9412;0.0000;-0.1257;0.5034
851;-3.8573;-1.9451;0.0000;-0.1271;0.4832
852;-3.5544;-1.9452;0.0000;-0.1573;0.4922
853;-3.2471;-1.9448;0.0000;-0.1798;0.5020
854;-2.9375;-1.9446;0.0000;-0.1570;0.5003
855;-2.6268;-1.9445;0.0000;-0.1454;0.4951
856;-2.3156;-1.9446;0.0000;-0.1544;0.4969
857;-2.0043;-1.9447;0.0000;-0.1590;0.4973
858;-1.6929;-1.9449;0.0000;-0.1653;0.4841
859;-1.3815;-1.9449;0.0000;-0.1560;0.4669
860;-1.0700;-1.9451;0.0000;-0.1521;0.4721
861;-0.7586;-1.9452;0.0000;-0.1579;0.4867
862;-0.4472;-1.9453;0.0000;-0.1426;0.5045
863;-0.1356;-1.9454;0.0000;-0.1383;0.5255
864;0.1759;-1.9455;0.0000;-0.1234;0.5145
865;0.4875;-1.9456;0.0000;-0.1118;0.4823
866;0.7991;-1.9456;0.0000;-0.1110;0.4733
867;1.1107;-1.9456;0.0000;-0.1323;0.4787
868;1.4222;-1.9457;0.0000;-0.1344;0.4669
869;1.7337;-1.9458;0.0000;-0.1254;0.4439
870;2.0453;-1.9458;0.0000;-0.1411;0.4322
871;2.3570;-1.9458;0.0000;-0.1297;0.4323
872;2.6689;-1.9457;0.0000;-0.1202;0.4330
873;2.9805;-1.9455;0.0000;-0.1380;0.4410
874;3.2899;-1.9442;0.0000;-0.1589;0.4407
875;3.5957;-1.9392;0.0000;-0.1552;0.4305
876;-4.3276;-2.2168;0.0000;-0.1388;0.5329
877;-4.0162;-2.2146;0.0000;-0.1176;0.5259
878;-3.7094;-2.2161;0.0000;-0.1305;0.5196
879;-3.4018;-2.2162;0.0000;-0.1710;0.5041
880;-3.0926;-2.2160;0.0000;-0.1625;0.5113
881;-2.7822;-2.2161;0.0000;-0.1335;0.5369
882;-2.4711;-2.2161;0.0000;-0.1501;0.5497
883;-2.1598;-2.2163;0.0000;-0.1653;0.5400
884;-1.8484;-2.2164;0.0000;-0.1716;0.5164
885;-1.5371;-2.2164;0.0000;-0.1691;0.4917
886;-1.2257;-2.2164;0.0000;-0.1409;0.4866
887;-0.9141;-2.2166;0.0000;-0.1524;0.4977
888;-0.6027;-2.2166;0.0000;-0.1596;0.4997
889;-0.2913;-2.2168;0.0000;-0.1470;0.4965
890;0.0202;-2.2170;0.0000;-0.1251;0.4969
891;0.3318;-2.2170;0.0000;-0.1154;0.4742
892;0.6434;-2.2169;0.0000;-0.1280;0.4580
893;0.9549;-2.2170;0.0000;-0.1253;0.4670
894;1.2665;-2.2170;0.0000;-0.1217;0.4602
895;1.5781;-2.2171;0.0000;-0.1236;0.4452
896;1.8896;-2.2171;0.0000;-0.1371;0.4426
897;2.2012;-2.2172;0.0000;-0.1440;0.4439
898;2.5132;-2.2172;0.0000;-0.1229;0.4424
899;2.8257;-2.2172;0.0000;-0.1185;0.4488
900;3.1396;-2.2158;0.0000;-0.1447;0.4539
901;3.4596;-2.2042;0.0000;-0.1448;0.4360
902;-4.4017;-2.4993;0.0000;-0.1227;0.5433
903;-4.1433;-2.4862;0.0000;-0.1316;0.5546
904;-3.8549;-2.4868;0.0000;-0.1415;0.5500
905;-3.5536;-2.4874;0.0000;-0.1582;0.5320
906;-3.2468;-2.4875;0.0000;-0.1595;0.5229
907;-2.9372;-2.4876;0.0000;-0.1356;0.5151
908;-2.6265;-2.4878;0.0000;-0.1513;0.5104
909;-2.3154;-2.4878;0.0000;-0.1777;0.5078
910;-2.0042;-2.4879;0.0000;-0.1735;0.5007
911;-1.6928;-2.4878;0.0000;-0.1674;0.5030
912;-1.3813;-2.4878;0.0000;-0.1500;0.5132
913;-1.0699;-2.4880;0.0000;-0.1391;0.5094
914;-0.7584;-2.4882;0.0000;-0.1494;0.5042
915;-0.4469;-2.4882;0.0000;-0.1504;0.4923
916;-0.1354;-2.4884;0.0000;-0.1310;0.4775
917;0.1762;-2.4884;0.0000;-0.1137;0.4726
918;0.4878;-2.4883;0.0000;-0.1336;0.4722
919;0.7992;-2.4884;0.0000;-0.1458;0.4825
920;1.1107;-2.4884;0.0000;-0.1295;0.4862
921;1.4223;-2.4884;0.0000;-0.1227;0.4675
922;1.7338;-2.4884;0.0000;-0.1253;0.4489
923;2.0455;-2.4885;0.0000;-0.1321;0.4457
924;2.3571;-2.4886;0.0000;-0.1318;0.4445
925;2.6688;-2.4888;0.0000;-0.1176;0.4406
926;2.9796;-2.4892;0.0000;-0.1267;0.4255
927;3.2846;-2.4853;0.0000;-0.1542;0.4203
928;3.5667;-2.4552;0.0000;-0.1404;0.4390
929;-4.3069;-2.7610;0.0000;-0.1232;0.5054
930;-4.0073;-2.7592;0.0000;-0.1439;0.5090
931;-3.7063;-2.7592;0.0000;-0.1595;0.5167
932;-3.4007;-2.7591;0.0000;-0.1474;0.5112
933;-3.0921;-2.7591;0.0000;-0.1403;0.5006
934;-2.7818;-2.7591;0.0000;-0.1536;0.4789
935;-2.4710;-2.7592;0.0000;-0.1766;0.4561
936;-2.1598;-2.7593;0.0000;-0.1813;0.4532
937;-1.8484;-2.7593;0.0000;-0.1634;0.4723
938;-1.5370;-2.7594;0.0000;-0.1531;0.4970
939;-1.2256;-2.7595;0.0000;-0.1415;0.5034
940;-0.9140;-2.7596;0.0000;-0.1398;0.5005
941;-0.6025;-2.7597;0.0000;-0.1430;0.4912
942;-0.2910;-2.7597;0.0000;-0.1367;0.4739
943;0.0205;-2.7598;0.0000;-0.1305;0.4650
944;0.3320;-2.7598;0.0000;-0.1297;0.4683
945;0.6435;-2.7598;0.0000;-0.1444;0.4715
946;0.9550;-2.7599;0.0000;-0.1312;0.4738
947;1.2666;-2.7599;0.0000;-0.1204;0.4775
948;1.5781;-2.7598;0.0000;-0.1353;0.4712
949;1.8897;-2.7599;0.0000;-0.1312;0.4488
950;2.2014;-2.7599;0.0000;-0.1249;0.4294
951;2.5139;-2.7600;0.0000;-0.1203;0.4283
952;2.8283;-2.7603;0.0000;-0.1181;0.4229
953;3.1483;-2.7596;0.0000;-0.1418;0.4135
954;3.4819;-2.7467;0.0000;-0.1485;0.4201
955;-4.4264;-3.0208;0.0000;-0.1097;0.4937
956;-4.1471;-3.0286;0.0000;-0.1216;0.4942
957;-3.8547;-3.0307;0.0000;-0.1426;0.5107
958;-3.5532;-3.0308;0.0000;-0.1531;0.5208
959;-3.2464;-3.0305;0.0000;-0.1358;0.5094
960;-2.9370;-3.0306;0.0000;-0.1513;0.4905
961;-2.6264;-3.0306;0.0000;-0.1698;0.4703
962;-2.3153;-3.0305;0.0000;-0.1720;0.4541
963;-2.0041;-3.0306;0.0000;-0.1598;0.4523
964;-1.6926;-3.0308;0.0000;-0.1448;0.4578
965;-1.3811;-3.0309;0.0000;-0.1482;0.4595
966;-1.0697;-3.0310;0.0000;-0.1472;0.4705
967;-0.7582;-3.0312;0.0000;-0.1457;0.4847
968;-0.4467;-3.0311;0.0000;-0.1434;0.4816
969;-0.1352;-3.0312;0.0000;-0.1429;0.4627
970;0.1763;-3.0312;0.0000;-0.1364;0.4593
971;0.4878;-3.0312;0.0000;-0.1332;0.4708
972;0.7993;-3.0312;0.0000;-0.1321;0.4570
973;1.1109;-3.0313;0.0000;-0.1040;0.4390
974;1.4226;-3.0313;0.0000;-0.1175;0.4421
975;1.7341;-3.0312;0.0000;-0.1483;0.4333
976;2.0456;-3.0312;0.0000;-0.1345;0.4113
977;2.3575;-3.0311;0.0000;-0.1238;0.4082
978;2.6700;-3.0311;0.0000;-0.1131;0.4206
979;2.9835;-3.0309;0.0000;-0.1252;0.4300
980;3.2944;-3.0305;0.0000;-0.1475;0.4280
981;3.5750;-3.0308;0.0000;-0.1492;0.4146
982;-4.3055;-3.2901;0.0000;-0.1139;0.5227
983;-4.0064;-3.3010;0.0000;-0.1239;0.5401
984;-3.7056;-3.3026;0.0000;-0.1546;0.5467
985;-3.4005;-3.3024;0.0000;-0.1381;0.5394
986;-3.0919;-3.3021;0.0000;-0.1283;0.5262
987;-2.7817;-3.3020;0.0000;-0.1515;0.5221
988;-2.4709;-3.3020;0.0000;-0.1639;0.5096
989;-2.1596;-3.3020;0.0000;-0.1562;0.4751
990;-1.8482;-3.3021;0.0000;-0.1460;0.4546
991;-1.5368;-3.3022;0.0000;-0.1557;0.4626
992;-1.2253;-3.3023;0.0000;-0.1477;0.4603
993;-0.9139;-3.3025;0.0000;-0.1539;0.4440
994;-0.6024;-3.3026;0.0000;-0.1534;0.4515
995;-0.2909;-3.3026;0.0000;-0.1416;0.4638
996;0.0206;-3.3026;0.0000;-0.1428;0.4612
997;0.3321;-3.3026;0.0000;-0.1203;0.4686
998;0.6437;-3.3027;0.0000;-0.1225;0.4712
999;0.9552;-3.3026;0.0000;-0.1354;0.4559
1000;1.2667;-3.3026;0.0000;-0.1193;0.4406
1001;1.5783;-3.3025;0.0000;-0.1283;0.4264
1002;1.8899;-3.3024;0.0000;-0.1321;0.4160
1003;2.2017;-3.3023;0.0000;-0.1215;0.4236
1004;2.5142;-3.3022;0.0000;-0.1174;0.4367
1005;2.8286;-3.3018;0.0000;-0.1258;0.4339
1006;3.1483;-3.3020;0.0000;-0.1428;0.4262
1007;3.4812;-3.3149;0.0000;-0.1331;0.4201
1008;-4.3983;-3.5457;0.0000;-0.1140;0.5358
1009;-4.1409;-3.5705;0.0000;-0.1230;0.5367
1010;-3.8533;-3.5748;0.0000;-0.1467;0.5367
1011;-3.5529;-3.5745;0.0000;-0.1495;0.5354
1012;-3.2463;-3.5739;0.0000;-0.1218;0.5228
1013;-2.9370;-3.5737;0.0000;-0.1268;0.5108
1014;-2.6263;-3.5737;0.0000;-0.1439;0.5046
1015;-2.3152;-3.5735;0.0000;-0.1553;0.4985
1016;-2.0039;-3.5734;0.0000;-0.1588;0.4760
1017;-1.6925;-3.5735;0.0000;-0.1592;0.4593
1018;-1.3811;-3.5737;0.0000;-0.1461;0.4770
1019;-1.0696;-3.5738;0.0000;-0.1422;0.4744
1020;-0.7581;-3.5739;0.0000;-0.1664;0.4456
1021;-0.4466;-3.5740;0.0000;-0.1501;0.4460
1022;-0.1351;-3.5740;0.0000;-0.1426;0.4636
1023;0.1763;-3.5740;0.0000;-0.1401;0.4622
1024;0.4879;-3.5740;0.0000;-0.1030;0.4553
1025;0.7996;-3.5740;0.0000;-0.1278;0.4651
1026;1.1110;-3.5740;0.0000;-0.1488;0.4689
1027;1.4224;-3.5739;0.0000;-0.1255;0.4549
1028;1.7341;-3.5738;0.0000;-0.1269;0.4537
1029;2.0457;-3.5737;0.0000;-0.1190;0.4659
1030;2.3574;-3.5736;0.0000;-0.1072;0.4644
1031;2.6692;-3.5733;0.0000;-0.1155;0.4510
1032;2.9797;-3.5729;0.0000;-0.1358;0.4383
1033;3.2837;-3.5771;0.0000;-0.1318;0.4175
1034;3.5620;-3.6075;0.0000;-0.1262;0.4074
1035;-4.3233;-3.8333;0.0000;-0.1221;0.5327
1036;-4.0138;-3.8457;0.0000;-0.1340;0.5247
1037;-3.7083;-3.8466;0.0000;-0.1482;0.5210
1038;-3.4013;-3.8460;0.0000;-0.1278;0.5269
1039;-3.0922;-3.8454;0.0000;-0.1285;0.5096
1040;-2.7818;-3.8452;0.0000;-0.1335;0.4776
1041;-2.4708;-3.8451;0.0000;-0.1438;0.4864
1042;-2.1595;-3.8451;0.0000;-0.1564;0.5077
1043;-1.8481;-3.8450;0.0000;-0.1564;0.4971
1044;-1.5367;-3.8451;0.0000;-0.1500;0.4853
1045;-1.2252;-3.8453;0.0000;-0.1318;0.4829
1046;-0.9136;-3.8453;0.0000;-0.1639;0.4676
1047;-0.6024;-3.8453;0.0000;-0.1740;0.4539
1048;-0.2909;-3.8454;0.0000;-0.1424;0.4554
1049;0.0207;-3.8454;0.0000;-0.1517;0.4588
1050;0.3321;-3.8454;0.0000;-0.1401;0.4609
1051;0.6436;-3.8454;0.0000;-0.1074;0.4618
1052;0.9552;-3.8455;0.0000;-0.1240;0.4666
1053;1.2668;-3.8454;0.0000;-0.1287;0.4791
1054;1.5783;-3.8453;0.0000;-0.1374;0.4844
1055;1.8898;-3.8452;0.0000;-0.1380;0.4869
1056;2.2015;-3.8451;0.0000;-0.0994;0.4848
1057;2.5134;-3.8450;0.0000;-0.1022;0.4772
1058;2.8256;-3.8450;0.0000;-0.1249;0.4645
1059;3.1385;-3.8471;0.0000;-0.1199;0.4459
1060;3.4571;-3.8594;0.0000;-0.1226;0.4335
1061;-4.4095;-4.1090;0.0000;-0.1339;0.4961
1062;-4.1500;-4.1167;0.0000;-0.1393;0.5078
1063;-3.8573;-4.1181;0.0000;-0.1374;0.5046
1064;-3.5543;-4.1181;0.0000;-0.1219;0.5111
1065;-3.2467;-4.1176;0.0000;-0.1210;0.5285
1066;-2.9370;-4.1173;0.0000;-0.1421;0.5220
1067;-2.6264;-4.1171;0.0000;-0.1553;0.5189
1068;-2.3152;-4.1171;0.0000;-0.1462;0.5241
1069;-2.0038;-4.1169;0.0000;-0.1290;0.5338
1070;-1.6923;-4.1169;0.0000;-0.1502;0.5319
1071;-1.3809;-4.1170;0.0000;-0.1564;0.4983
1072;-1.0694;-4.1170;0.0000;-0.1440;0.4847
1073;-0.7580;-4.1170;0.0000;-0.1612;0.4893
1074;-0.4465;-4.1170;0.0000;-0.1590;0.4779
1075;-0.1350;-4.1170;0.0000;-0.1521;0.4723
1076;0.1764;-4.1170;0.0000;-0.1608;0.4764
1077;0.4878;-4.1170;0.0000;-0.1156;0.4725
1078;0.7995;-4.1169;0.0000;-0.1017;0.4676
1079;1.1111;-4.1169;0.0000;-0.1273;0.4823
1080;1.4226;-4.1169;0.0000;-0.1336;0.4936
1081;1.7341;-4.1167;0.0000;-0.1486;0.4750
1082;2.0456;-4.1166;0.0000;-0.1167;0.4611
1083;2.3574;-4.1165;0.0000;-0.0755;0.4715
1084;2.6690;-4.1165;0.0000;-0.1151;0.4808
1085;2.9796;-4.1170;0.0000;-0.1291;0.4855
1086;3.2877;-4.1193;0.0000;-0.1193;0.4896
1087;3.5917;-4.1245;0.0000;-0.1329;0.4720
1088;-4.3254;-4.3960;0.0000;-0.1376;0.5052
1089;-4.0146;-4.3906;0.0000;-0.1295;0.4945
1090;-3.7085;-4.3908;0.0000;-0.1216;0.4867
1091;-3.4011;-4.3908;0.0000;-0.1155;0.4983
1092;-3.0919;-4.3904;0.0000;-0.1313;0.5280
1093;-2.7815;-4.3900;0.0000;-0.1488;0.5403
1094;-2.4705;-4.3899;0.0000;-0.1526;0.5296
1095;-2.1592;-4.3897;0.0000;-0.1267;0.5271
1096;-1.8477;-4.3896;0.0000;-0.1347;0.5337
1097;-1.5362;-4.3894;0.0000;-0.1643;0.5276
1098;-1.2248;-4.3894;0.0000;-0.1516;0.5206
1099;-0.9133;-4.3893;0.0000;-0.1475;0.5161
1100;-0.6018;-4.3891;0.0000;-0.1602;0.5069
1101;-0.2905;-4.3890;0.0000;-0.1537;0.4982
1102;0.0211;-4.3889;0.0000;-0.1509;0.4884
1103;0.3326;-4.3888;0.0000;-0.1325;0.4913
1104;0.6442;-4.3887;0.0000;-0.0965;0.4948
1105;0.9558;-4.3886;0.0000;-0.1156;0.4898
1106;1.2673;-4.3885;0.0000;-0.1311;0.4937
1107;1.5788;-4.3882;0.0000;-0.1434;0.4958
1108;1.8903;-4.3879;0.0000;-0.1482;0.4839
1109;2.2019;-4.3878;0.0000;-0.0911;0.4956
1110;2.5139;-4.3877;0.0000;-0.0809;0.5169
1111;2.8258;-4.3877;0.0000;-0.1223;0.5169
1112;3.1384;-4.3878;0.0000;-0.1329;0.5139
1113;3.4573;-4.3826;0.0000;-0.1271;0.5017
1114;-4.3972;-4.6853;0.0000;-0.1418;0.5292
1115;-4.1388;-4.6666;0.0000;-0.1345;0.5211
1116;-3.8514;-4.6659;0.0000;-0.1110;0.5059
1117;-3.5507;-4.6655;0.0000;-0.1042;0.4847
1118;-3.2439;-4.6652;0.0000;-0.1191;0.4840
1119;-2.9343;-4.6647;0.0000;-0.1437;0.5007
1120;-2.6237;-4.6642;0.0000;-0.1486;0.5085
1121;-2.3125;-4.6638;0.0000;-0.1326;0.5149
1122;-2.0011;-4.6635;0.0000;-0.1266;0.5158
1123;-1.6896;-4.6631;0.0000;-0.1543;0.5161
1124;-1.3782;-4.6629;0.0000;-0.1654;0.5104
1125;-1.0667;-4.6626;0.0000;-0.1501;0.4965
1126;-0.7552;-4.6622;0.0000;-0.1491;0.4978
1127;-0.4437;-4.6619;0.0000;-0.1511;0.4967
1128;-0.1322;-4.6615;0.0000;-0.1549;0.4935
1129;0.1792;-4.6612;0.0000;-0.1544;0.5085
1130;0.4908;-4.6610;0.0000;-0.1075;0.5174
1131;0.8024;-4.6606;0.0000;-0.0970;0.5062
1132;1.1141;-4.6602;0.0000;-0.1122;0.4984
1133;1.4257;-4.6600;0.0000;-0.1275;0.5031
1134;1.7372;-4.6595;0.0000;-0.1542;0.5190
1135;2.0486;-4.6590;0.0000;-0.1367;0.5430
1136;2.3602;-4.6589;0.0000;-0.1016;0.5510
1137;2.6714;-4.6587;0.0000;-0.0999;0.5313
1138;2.9810;-4.6584;0.0000;-0.1096;0.4958
1139;3.2851;-4.6564;0.0000;-0.1168;0.4745
1140;3.5662;-4.6319;0.0000;-0.1381;0.4671
1141;-4.2959;-4.9473;0.0000;-0.1487;0.5328
1142;-3.9966;-4.9460;0.0000;-0.1209;0.5303
1143;-3.6950;-4.9437;0.0000;-0.0931;0.5198
1144;-3.3889;-4.9423;0.0000;-0.1096;0.4932
1145;-3.0801;-4.9413;0.0000;-0.1459;0.4745
1146;-2.7698;-4.9404;0.0000;-0.1432;0.4912
1147;-2.4586;-4.9397;0.0000;-0.1267;0.4985
1148;-2.1472;-4.9390;0.0000;-0.1220;0.4950
1149;-1.8356;-4.9383;0.0000;-0.1381;0.4981
1150;-1.5241;-4.9376;0.0000;-0.1566;0.4886
1151;-1.2126;-4.9369;0.0000;-0.1595;0.4765
1152;-0.9011;-4.9362;0.0000;-0.1594;0.4884
1153;-0.5896;-4.9356;0.0000;-0.1487;0.5012
1154;-0.2780;-4.9348;0.0000;-0.1458;0.5017
1155;0.0335;-4.9342;0.0000;-0.1624;0.5051
1156;0.3450;-4.9337;0.0000;-0.1387;0.4943
1157;0.6567;-4.9329;0.0000;-0.1033;0.4937
1158;0.9684;-4.9322;0.0000;-0.1119;0.5017
1159;1.2800;-4.9316;0.0000;-0.1021;0.4865
1160;1.5917;-4.9308;0.0000;-0.1278;0.4868
1161;1.9033;-4.9300;0.0000;-0.1356;0.5173
1162;2.2151;-4.9295;0.0000;-0.1137;0.5105
1163;2.5270;-4.9288;0.0000;-0.1206;0.4720
1164;2.8398;-4.9277;0.0000;-0.1121;0.4629
1165;3.1559;-4.9245;0.0000;-0.1094;0.4680
1166;3.4856;-4.9140;0.0000;-0.1358;0.4794
1167;-4.3984;-5.2046;0.0000;-0.1607;0.5256
1168;-4.1191;-5.2253;0.0000;-0.1344;0.5252
1169;-3.8224;-5.2231;0.0000;-0.0837;0.5262
1170;-3.5179;-5.2210;0.0000;-0.0865;0.5229
1171;-3.2095;-5.2192;0.0000;-0.1400;0.5140
1172;-2.8994;-5.2178;0.0000;-0.1660;0.5227
1173;-2.5884;-5.2166;0.0000;-0.1307;0.5242
1174;-2.2769;-5.2153;0.0000;-0.0997;0.4952
1175;-1.9651;-5.2141;0.0000;-0.1139;0.4807
1176;-1.6534;-5.2129;0.0000;-0.1472;0.4803
1177;-1.3418;-5.2117;0.0000;-0.1640;0.4919
1178;-1.0302;-5.2105;0.0000;-0.1611;0.5067
1179;-0.7185;-5.2094;0.0000;-0.1529;0.4989
1180;-0.4068;-5.2083;0.0000;-0.1386;0.4979
1181;-0.0951;-5.2071;0.0000;-0.1477;0.4961
1182;0.2166;-5.2059;0.0000;-0.1447;0.4874
1183;0.5283;-5.2047;0.0000;-0.1304;0.4866
1184;0.8400;-5.2036;0.0000;-0.1358;0.4853
1185;1.1517;-5.2024;0.0000;-0.1085;0.4773
1186;1.4636;-5.2011;0.0000;-0.0958;0.4810
1187;1.7754;-5.2000;0.0000;-0.1238;0.4910
1188;2.0871;-5.1989;0.0000;-0.1158;0.4814
1189;2.3988;-5.1976;0.0000;-0.1106;0.4689
1190;2.7098;-5.1962;0.0000;-0.1293;0.4699
1191;3.0178;-5.1942;0.0000;-0.1112;0.4820
1192;3.3149;-5.1890;0.0000;-0.1083;0.4923
1193;3.5744;-5.1851;0.0000;-0.1549;0.4957
