# Units: length:mm angle:deg time:s strain:% 
# Stage: image-000008
stage;index;relative_time;date
"image-000008";9;8.0000;"2022-09-26T12:00:58.387"
# Name : Surface_xy
id;x;y;z;epsilon_x;epsilon_y
0;-4.5191;5.8407;0.0000;-0.0301;0.0251
1;-4.2069;5.8409;0.0000;-0.0259;0.0158
2;-3.8946;5.8411;0.0000;-0.0062;0.0322
3;-3.5823;5.8413;0.0000;0.0195;0.0333
4;-3.2699;5.8415;0.0000;0.0079;0.0342
5;-2.9576;5.8417;0.0000;0.0007;0.0289
6;-2.6453;5.8419;0.0000;0.0301;0.0387
7;-2.3328;5.8420;0.0000;0.0319;0.0298
8;-2.0205;5.8421;0.0000;0.0020;0.0145
9;-1.7081;5.8423;0.0000;0.0010;0.0247
10;-1.3958;5.8425;0.0000;-0.0032;0.0337
11;-1.0835;5.8427;0.0000;-0.0117;0.0376
12;-0.7713;5.8428;0.0000;-0.0226;0.0286
13;-0.4590;5.8429;0.0000;-0.0299;0.0356
14;-0.1468;5.8431;0.0000;-0.0221;0.0539
15;0.1654;5.8433;0.0000;-0.0324;0.0479
16;0.4777;5.8434;0.0000;-0.0459;0.0411
17;0.7898;5.8435;0.0000;-0.0249;0.0528
18;1.1021;5.8437;0.0000;-0.0144;0.0591
19;1.4144;5.8438;0.0000;-0.0183;0.0539
20;1.7267;5.8439;0.0000;-0.0024;0.0314
21;2.0390;5.8441;0.0000;-0.0057;0.0224
22;2.3513;5.8443;0.0000;-0.0136;0.0071
23;2.6635;5.8443;0.0000;-0.0214;-0.0257
24;2.9757;5.8446;0.0000;-0.0256;0.0169
25;3.2880;5.8449;0.0000;-0.0173;0.0653
26;3.6003;5.8452;0.0000;-0.0239;0.0479
27;3.8493;5.7361;0.0000;-0.0126;-0.0023
28;3.8484;5.4239;0.0000;-0.0155;0.0098
29;3.8473;5.1115;0.0000;-0.0254;0.0140
30;3.8463;4.7991;0.0000;-0.0234;0.0205
31;3.8453;4.4868;0.0000;-0.0193;0.0273
32;3.8443;4.1743;0.0000;-0.0199;0.0482
33;3.8432;3.8618;0.0000;-0.0341;0.0585
34;3.8423;3.5493;0.0000;-0.0295;0.0553
35;3.8413;3.2368;0.0000;-0.0106;0.0536
36;3.8403;2.9243;0.0000;-0.0211;0.0585
37;3.8394;2.6119;0.0000;-0.0284;0.0495
38;3.8383;2.2994;0.0000;-0.0411;0.0440
39;3.8374;1.9869;0.0000;-0.0300;0.0324
40;3.8365;1.6745;0.0000;-0.0204;0.0369
41;3.8355;1.3621;0.0000;-0.0220;0.0416
42;3.8346;1.0496;0.0000;-0.0425;0.0262
43;3.8337;0.7373;0.0000;-0.0459;-0.0049
44;3.8329;0.4250;0.0000;-0.0155;0.0147
45;3.8320;0.1126;0.0000;-0.0243;0.0373
46;3.8312;-0.1998;0.0000;-0.0338;0.0078
47;3.8304;-0.5121;0.0000;-0.0208;0.0114
48;3.8295;-0.8245;0.0000;-0.0276;0.0164
49;3.8287;-1.1369;0.0000;-0.0236;0.0069
50;3.8278;-1.4492;0.0000;-0.0352;0.0073
51;3.8270;-1.7616;0.0000;-0.0061;-0.0094
52;3.8261;-2.0738;0.0000;-0.0067;-0.0197
53;3.8251;-2.3860;0.0000;-0.0229;-0.0168
54;3.8243;-2.6983;0.0000;-0.0046;-0.0124
55;3.8234;-3.0106;0.0000;-0.0174;-0.0126
56;3.8225;-3.3229;0.0000;-0.0238;-0.0105
57;3.8216;-3.6351;0.0000;-0.0126;0.0015
58;3.8206;-3.9475;0.0000;-0.0254;0.0122
59;3.8196;-4.2598;0.0000;-0.0302;-0.0009
60;3.8186;-4.5721;0.0000;-0.0717;0.0064
61;3.8177;-4.8845;0.0000;-0.0559;0.0317
62;3.8168;-5.1969;0.0000;-0.0565;0.0401
63;3.5514;-5.2692;0.0000;-0.0407;0.0399
64;3.2391;-5.2710;0.0000;-0.0146;0.0535
65;2.9269;-5.2726;0.0000;-0.0214;0.0191
66;2.6146;-5.2743;0.0000;-0.0352;0.0103
67;2.3024;-5.2761;0.0000;-0.0259;0.0421
68;1.9902;-5.2778;0.0000;-0.0295;0.0291
69;1.6780;-5.2795;0.0000;-0.0212;0.0344
70;1.3657;-5.2813;0.0000;-0.0080;0.0640
71;1.0534;-5.2829;0.0000;-0.0241;0.0506
72;0.7412;-5.2846;0.0000;-0.0441;0.0462
73;0.4291;-5.2864;0.0000;-0.0219;0.0703
74;0.1168;-5.2881;0.0000;-0.0161;0.0463
75;-0.1955;-5.2897;0.0000;-0.0281;0.0283
76;-0.5077;-5.2915;0.0000;-0.0200;0.0396
77;-0.8200;-5.2933;0.0000;-0.0168;0.0507
78;-1.1322;-5.2950;0.0000;-0.0109;0.0485
79;-1.4445;-5.2967;0.0000;-0.0175;0.0335
80;-1.7568;-5.2985;0.0000;-0.0122;0.0333
81;-2.0690;-5.3003;0.0000;-0.0166;0.0396
82;-2.3813;-5.3021;0.0000;-0.0208;0.0518
83;-2.6935;-5.3039;0.0000;-0.0192;0.0748
84;-3.0058;-5.3056;0.0000;-0.0086;0.0626
85;-3.3181;-5.3074;0.0000;-0.0086;0.0636
86;-3.6304;-5.3093;0.0000;0.0105;0.0840
87;-3.9427;-5.3110;0.0000;0.0079;0.0721
88;-4.2551;-5.3127;0.0000;0.0081;0.0613
89;-4.5663;-5.2907;0.0000;0.0185;0.0289
90;-4.6165;-5.0234;0.0000;0.0108;0.0313
91;-4.6167;-4.7110;0.0000;0.0006;0.0523
92;-4.6169;-4.3985;0.0000;0.0159;0.0642
93;-4.6172;-4.0859;0.0000;0.0213;0.0658
94;-4.6174;-3.7734;0.0000;0.0157;0.0601
95;-4.6177;-3.4609;0.0000;0.0151;0.0734
96;-4.6180;-3.1484;0.0000;0.0346;0.0626
97;-4.6182;-2.8359;0.0000;0.0292;0.0573
98;-4.6184;-2.5234;0.0000;0.0031;0.0461
99;-4.6187;-2.2110;0.0000;0.0091;0.0332
100;-4.6189;-1.8985;0.0000;0.0040;0.0386
101;-4.6191;-1.5861;0.0000;-0.0061;0.0133
102;-4.6194;-1.2738;0.0000;-0.0081;0.0072
103;-4.6198;-0.9614;0.0000;-0.0014;-0.0069
104;-4.6202;-0.6491;0.0000;-0.0016;-0.0124
105;-4.6205;-0.3369;0.0000;0.0085;-0.0382
106;-4.6210;-0.0247;0.0000;0.0272;-0.0249
107;-4.6213;0.2875;0.0000;0.0130;-0.0030
108;-4.6217;0.5999;0.0000;-0.0017;0.0071
109;-4.6220;0.9123;0.0000;-0.0034;0.0281
110;-4.6224;1.2247;0.0000;-0.0024;0.0383
111;-4.6227;1.5371;0.0000;0.0009;0.0209
112;-4.6230;1.8495;0.0000;0.0066;0.0334
113;-4.6234;2.1619;0.0000;0.0076;0.0471
114;-4.6237;2.4744;0.0000;0.0031;0.0408
115;-4.6240;2.7868;0.0000;-0.0045;0.0260
116;-4.6242;3.0992;0.0000;-0.0372;0.0409
117;-4.6245;3.4117;0.0000;-0.0216;0.0605
118;-4.6249;3.7242;0.0000;0.0240;0.0525
119;-4.6252;4.0366;0.0000;0.0266;0.0458
120;-4.6254;4.3491;0.0000;-0.0075;0.0477
121;-4.6256;4.6616;0.0000;-0.0165;0.0387
122;-4.6259;4.9740;0.0000;0.0001;0.0433
123;-4.6262;5.2865;0.0000;-0.0026;0.0539
124;-4.6264;5.5990;0.0000;-0.0134;0.0478
125;-4.3279;5.5644;0.0000;-0.0204;0.0329
126;-4.0255;5.5604;0.0000;-0.0142;0.0305
127;-3.7195;5.5579;0.0000;0.0092;0.0435
128;-3.4104;5.5571;0.0000;0.0162;0.0475
129;-3.0996;5.5569;0.0000;0.0070;0.0476
130;-2.7880;5.5568;0.0000;0.0193;0.0484
131;-2.4759;5.5569;0.0000;0.0373;0.0387
132;-2.1637;5.5570;0.0000;0.0144;0.0246
133;-1.8517;5.5571;0.0000;-0.0048;0.0238
134;-1.5396;5.5571;0.0000;-0.0008;0.0298
135;-1.2275;5.5572;0.0000;-0.0052;0.0353
136;-0.9154;5.5573;0.0000;-0.0176;0.0368
137;-0.6033;5.5574;0.0000;-0.0289;0.0401
138;-0.2913;5.5574;0.0000;-0.0244;0.0427
139;0.0208;5.5575;0.0000;-0.0304;0.0352
140;0.3327;5.5575;0.0000;-0.0460;0.0314
141;0.6447;5.5576;0.0000;-0.0321;0.0405
142;0.9568;5.5576;0.0000;-0.0075;0.0460
143;1.2688;5.5577;0.0000;-0.0250;0.0444
144;1.5809;5.5578;0.0000;-0.0166;0.0415
145;1.8930;5.5579;0.0000;-0.0080;0.0361
146;2.2049;5.5581;0.0000;-0.0109;0.0273
147;2.5160;5.5583;0.0000;-0.0112;0.0077
148;2.8241;5.5588;0.0000;-0.0268;0.0025
149;3.1236;5.5599;0.0000;-0.0244;0.0263
150;3.4044;5.5623;0.0000;-0.0209;0.0303
151;3.6467;5.5545;0.0000;-0.0230;0.0073
152;-4.4246;5.2823;0.0000;-0.0089;0.0510
153;-4.1506;5.2809;0.0000;-0.0081;0.0473
154;-3.8579;5.2764;0.0000;-0.0003;0.0486
155;-3.5548;5.2749;0.0000;0.0083;0.0537
156;-3.2466;5.2745;0.0000;0.0098;0.0596
157;-2.9360;5.2744;0.0000;0.0260;0.0613
158;-2.6245;5.2744;0.0000;0.0324;0.0510
159;-2.3126;5.2745;0.0000;0.0248;0.0398
160;-2.0006;5.2745;0.0000;-0.0021;0.0364
161;-1.6887;5.2745;0.0000;-0.0014;0.0333
162;-1.3766;5.2745;0.0000;0.0053;0.0390
163;-1.0646;5.2746;0.0000;-0.0087;0.0535
164;-0.7527;5.2746;0.0000;-0.0336;0.0578
165;-0.4408;5.2745;0.0000;-0.0353;0.0515
166;-0.1289;5.2746;0.0000;-0.0283;0.0431
167;0.1830;5.2746;0.0000;-0.0460;0.0325
168;0.4948;5.2746;0.0000;-0.0369;0.0374
169;0.8068;5.2745;0.0000;-0.0038;0.0458
170;1.1188;5.2746;0.0000;-0.0142;0.0368
171;1.4307;5.2746;0.0000;-0.0328;0.0302
172;1.7426;5.2746;0.0000;-0.0252;0.0330
173;2.0544;5.2746;0.0000;-0.0174;0.0430
174;2.3659;5.2747;0.0000;-0.0049;0.0445
175;2.6758;5.2749;0.0000;-0.0188;0.0284
176;2.9811;5.2752;0.0000;-0.0375;0.0090
177;3.2788;5.2757;0.0000;-0.0153;-0.0020
178;3.5708;5.2775;0.0000;-0.0181;0.0035
179;-4.3056;5.0083;0.0000;-0.0046;0.0531
180;-4.0060;4.9985;0.0000;-0.0008;0.0529
181;-3.7041;4.9958;0.0000;0.0042;0.0488
182;-3.3976;4.9954;0.0000;0.0047;0.0548
183;-3.0882;4.9954;0.0000;0.0180;0.0538
184;-2.7772;4.9953;0.0000;0.0310;0.0481
185;-2.4656;4.9954;0.0000;0.0314;0.0510
186;-2.1537;4.9954;0.0000;0.0128;0.0561
187;-1.8418;4.9954;0.0000;-0.0073;0.0532
188;-1.5299;4.9954;0.0000;-0.0028;0.0487
189;-1.2180;4.9953;0.0000;0.0015;0.0518
190;-0.9060;4.9953;0.0000;-0.0204;0.0490
191;-0.5941;4.9952;0.0000;-0.0407;0.0353
192;-0.2823;4.9952;0.0000;-0.0337;0.0412
193;0.0296;4.9952;0.0000;-0.0342;0.0526
194;0.3414;4.9952;0.0000;-0.0416;0.0424
195;0.6532;4.9951;0.0000;-0.0186;0.0350
196;0.9652;4.9950;0.0000;-0.0020;0.0362
197;1.2771;4.9951;0.0000;-0.0210;0.0381
198;1.5890;4.9951;0.0000;-0.0348;0.0382
199;1.9008;4.9950;0.0000;-0.0312;0.0390
200;2.2124;4.9950;0.0000;-0.0097;0.0406
201;2.5230;4.9950;0.0000;-0.0152;0.0350
202;2.8297;4.9951;0.0000;-0.0381;0.0265
203;3.1267;4.9953;0.0000;-0.0303;0.0129
204;3.4046;4.9929;0.0000;-0.0170;0.0116
205;3.6440;4.9937;0.0000;-0.0234;0.0206
206;-4.3988;4.7499;0.0000;-0.0083;0.0462
207;-4.1394;4.7240;0.0000;0.0016;0.0560
208;-3.8507;4.7195;0.0000;0.0057;0.0530
209;-3.5492;4.7191;0.0000;0.0086;0.0526
210;-3.2418;4.7193;0.0000;0.0096;0.0595
211;-2.9318;4.7194;0.0000;0.0221;0.0595
212;-2.6205;4.7195;0.0000;0.0237;0.0619
213;-2.3087;4.7195;0.0000;0.0230;0.0608
214;-1.9969;4.7195;0.0000;0.0108;0.0594
215;-1.6849;4.7194;0.0000;0.0004;0.0642
216;-1.3730;4.7194;0.0000;-0.0044;0.0628
217;-1.0611;4.7193;0.0000;-0.0148;0.0493
218;-0.7492;4.7193;0.0000;-0.0391;0.0351
219;-0.4374;4.7193;0.0000;-0.0365;0.0283
220;-0.1256;4.7191;0.0000;-0.0221;0.0368
221;0.1863;4.7191;0.0000;-0.0287;0.0494
222;0.4982;4.7191;0.0000;-0.0269;0.0376
223;0.8100;4.7190;0.0000;-0.0129;0.0266
224;1.1220;4.7189;0.0000;-0.0152;0.0435
225;1.4339;4.7189;0.0000;-0.0291;0.0535
226;1.7456;4.7188;0.0000;-0.0408;0.0421
227;2.0573;4.7188;0.0000;-0.0223;0.0309
228;2.3686;4.7187;0.0000;-0.0194;0.0312
229;2.6777;4.7187;0.0000;-0.0377;0.0377
230;2.9815;4.7188;0.0000;-0.0350;0.0410
231;3.2771;4.7187;0.0000;-0.0184;0.0360
232;3.5695;4.7074;0.0000;-0.0262;0.0284
233;-4.3234;4.4598;0.0000;-0.0045;0.0472
234;-4.0116;4.4467;0.0000;0.0013;0.0481
235;-3.7048;4.4453;0.0000;0.0051;0.0445
236;-3.3968;4.4455;0.0000;0.0129;0.0439
237;-3.0870;4.4457;0.0000;0.0189;0.0502
238;-2.7760;4.4458;0.0000;0.0166;0.0564
239;-2.4644;4.4459;0.0000;0.0119;0.0601
240;-2.1526;4.4459;0.0000;0.0231;0.0612
241;-1.8406;4.4459;0.0000;0.0166;0.0632
242;-1.5287;4.4457;0.0000;-0.0080;0.0715
243;-1.2168;4.4457;0.0000;-0.0108;0.0688
244;-0.9049;4.4457;0.0000;-0.0235;0.0587
245;-0.5931;4.4457;0.0000;-0.0265;0.0569
246;-0.2812;4.4456;0.0000;-0.0184;0.0459
247;0.0307;4.4455;0.0000;-0.0230;0.0389
248;0.3425;4.4454;0.0000;-0.0350;0.0474
249;0.6544;4.4454;0.0000;-0.0275;0.0449
250;0.9662;4.4453;0.0000;-0.0246;0.0454
251;1.2781;4.4451;0.0000;-0.0298;0.0518
252;1.5899;4.4451;0.0000;-0.0314;0.0397
253;1.9017;4.4451;0.0000;-0.0369;0.0254
254;2.2132;4.4450;0.0000;-0.0268;0.0258
255;2.5232;4.4449;0.0000;-0.0327;0.0334
256;2.8285;4.4447;0.0000;-0.0341;0.0389
257;3.1220;4.4452;0.0000;-0.0238;0.0380
258;3.3939;4.4454;0.0000;-0.0228;0.0346
259;3.6336;4.4156;0.0000;-0.0295;0.0386
260;-4.4083;4.1772;0.0000;0.0066;0.0508
261;-4.1483;4.1762;0.0000;-0.0026;0.0488
262;-3.8544;4.1738;0.0000;-0.0036;0.0520
263;-3.5503;4.1735;0.0000;0.0128;0.0500
264;-3.2419;4.1737;0.0000;0.0202;0.0486
265;-2.9315;4.1738;0.0000;0.0204;0.0457
266;-2.6202;4.1739;0.0000;0.0126;0.0497
267;-2.3085;4.1738;0.0000;0.0185;0.0678
268;-1.9966;4.1738;0.0000;0.0228;0.0770
269;-1.6846;4.1737;0.0000;-0.0011;0.0667
270;-1.3727;4.1736;0.0000;-0.0154;0.0528
271;-1.0608;4.1736;0.0000;-0.0119;0.0588
272;-0.7489;4.1736;0.0000;-0.0139;0.0674
273;-0.4370;4.1735;0.0000;-0.0112;0.0666
274;-0.1251;4.1735;0.0000;-0.0168;0.0590
275;0.1868;4.1734;0.0000;-0.0367;0.0440
276;0.4985;4.1733;0.0000;-0.0425;0.0384
277;0.8103;4.1732;0.0000;-0.0279;0.0432
278;1.1222;4.1731;0.0000;-0.0323;0.0430
279;1.4340;4.1730;0.0000;-0.0368;0.0348
280;1.7458;4.1730;0.0000;-0.0395;0.0312
281;2.0575;4.1730;0.0000;-0.0360;0.0340
282;2.3684;4.1728;0.0000;-0.0298;0.0354
283;2.6765;4.1724;0.0000;-0.0318;0.0328
284;2.9771;4.1717;0.0000;-0.0362;0.0318
285;3.2638;4.1719;0.0000;-0.0272;0.0398
286;3.5385;4.1738;0.0000;-0.0291;0.0450
287;-4.3259;3.8989;0.0000;0.0111;0.0531
288;-4.0131;3.9036;0.0000;-0.0067;0.0565
289;-3.7055;3.9028;0.0000;0.0039;0.0607
290;-3.3970;3.9026;0.0000;0.0262;0.0690
291;-3.0870;3.9026;0.0000;0.0274;0.0647
292;-2.7759;3.9027;0.0000;0.0161;0.0576
293;-2.4643;3.9027;0.0000;0.0147;0.0642
294;-2.1525;3.9026;0.0000;0.0192;0.0695
295;-1.8406;3.9025;0.0000;0.0074;0.0721
296;-1.5286;3.9025;0.0000;-0.0123;0.0670
297;-1.2168;3.9024;0.0000;-0.0167;0.0577
298;-0.9049;3.9023;0.0000;-0.0122;0.0607
299;-0.5930;3.9023;0.0000;-0.0042;0.0670
300;-0.2810;3.9022;0.0000;-0.0086;0.0705
301;0.0309;3.9022;0.0000;-0.0274;0.0701
302;0.3427;3.9022;0.0000;-0.0463;0.0584
303;0.6545;3.9021;0.0000;-0.0387;0.0433
304;0.9663;3.9019;0.0000;-0.0272;0.0350
305;1.2782;3.9018;0.0000;-0.0400;0.0314
306;1.5900;3.9018;0.0000;-0.0454;0.0370
307;1.9017;3.9018;0.0000;-0.0365;0.0444
308;2.2131;3.9016;0.0000;-0.0318;0.0436
309;2.5230;3.9012;0.0000;-0.0351;0.0410
310;2.8278;3.9001;0.0000;-0.0451;0.0371
311;3.1204;3.8986;0.0000;-0.0407;0.0387
312;3.3914;3.9012;0.0000;-0.0291;0.0466
313;3.6320;3.9357;0.0000;-0.0294;0.0501
314;-4.4004;3.6152;0.0000;0.0043;0.0625
315;-4.1407;3.6319;0.0000;-0.0006;0.0631
316;-3.8512;3.6326;0.0000;0.0006;0.0629
317;-3.5491;3.6320;0.0000;0.0206;0.0620
318;-3.2414;3.6319;0.0000;0.0345;0.0605
319;-2.9313;3.6320;0.0000;0.0262;0.0587
320;-2.6200;3.6319;0.0000;0.0101;0.0627
321;-2.3084;3.6319;0.0000;0.0174;0.0687
322;-1.9964;3.6318;0.0000;0.0094;0.0626
323;-1.6845;3.6317;0.0000;-0.0071;0.0599
324;-1.3727;3.6316;0.0000;-0.0133;0.0680
325;-1.0608;3.6316;0.0000;-0.0143;0.0631
326;-0.7489;3.6316;0.0000;-0.0172;0.0583
327;-0.4370;3.6315;0.0000;-0.0047;0.0682
328;-0.1251;3.6314;0.0000;-0.0119;0.0713
329;0.1868;3.6314;0.0000;-0.0370;0.0681
330;0.4986;3.6314;0.0000;-0.0479;0.0625
331;0.8104;3.6313;0.0000;-0.0334;0.0514
332;1.1223;3.6312;0.0000;-0.0338;0.0394
333;1.4341;3.6311;0.0000;-0.0509;0.0391
334;1.7458;3.6311;0.0000;-0.0412;0.0442
335;2.0575;3.6310;0.0000;-0.0287;0.0414
336;2.3685;3.6307;0.0000;-0.0360;0.0418
337;2.6772;3.6299;0.0000;-0.0517;0.0451
338;2.9804;3.6283;0.0000;-0.0549;0.0425
339;3.2752;3.6288;0.0000;-0.0315;0.0412
340;3.5664;3.6470;0.0000;-0.0272;0.0511
341;-4.3053;3.3563;0.0000;-0.0077;0.0628
342;-4.0043;3.3607;0.0000;0.0018;0.0667
343;-3.7022;3.3612;0.0000;0.0105;0.0649
344;-3.3958;3.3613;0.0000;0.0229;0.0553
345;-3.0865;3.3614;0.0000;0.0376;0.0558
346;-2.7756;3.3615;0.0000;0.0256;0.0725
347;-2.4641;3.3614;0.0000;0.0120;0.0850
348;-2.1523;3.3613;0.0000;0.0098;0.0858
349;-1.8405;3.3613;0.0000;-0.0061;0.0704
350;-1.5286;3.3612;0.0000;-0.0084;0.0486
351;-1.2167;3.3611;0.0000;-0.0115;0.0550
352;-0.9048;3.3611;0.0000;-0.0227;0.0708
353;-0.5930;3.3610;0.0000;-0.0149;0.0666
354;-0.2810;3.3609;0.0000;-0.0035;0.0612
355;0.0309;3.3609;0.0000;-0.0179;0.0632
356;0.3427;3.3609;0.0000;-0.0426;0.0647
357;0.6545;3.3609;0.0000;-0.0390;0.0565
358;0.9664;3.3608;0.0000;-0.0358;0.0511
359;1.2782;3.3607;0.0000;-0.0481;0.0514
360;1.5899;3.3607;0.0000;-0.0525;0.0450
361;1.9017;3.3606;0.0000;-0.0404;0.0422
362;2.2131;3.3605;0.0000;-0.0383;0.0482
363;2.5233;3.3599;0.0000;-0.0448;0.0553
364;2.8296;3.3589;0.0000;-0.0556;0.0590
365;3.1266;3.3581;0.0000;-0.0470;0.0562
366;3.4050;3.3627;0.0000;-0.0310;0.0529
367;3.6438;3.3677;0.0000;-0.0226;0.0547
368;-4.4264;3.0956;0.0000;-0.0095;0.0439
369;-4.1450;3.0915;0.0000;0.0029;0.0532
370;-3.8511;3.0906;0.0000;0.0121;0.0649
371;-3.5487;3.0907;0.0000;0.0079;0.0656
372;-3.2412;3.0909;0.0000;0.0214;0.0533
373;-2.9312;3.0910;0.0000;0.0306;0.0629
374;-2.6200;3.0909;0.0000;0.0151;0.0800
375;-2.3083;3.0908;0.0000;0.0078;0.0811
376;-1.9965;3.0908;0.0000;-0.0003;0.0815
377;-1.6846;3.0908;0.0000;-0.0022;0.0740
378;-1.3727;3.0908;0.0000;-0.0083;0.0614
379;-1.0608;3.0907;0.0000;-0.0248;0.0642
380;-0.7489;3.0906;0.0000;-0.0168;0.0703
381;-0.4370;3.0906;0.0000;-0.0044;0.0585
382;-0.1251;3.0905;0.0000;-0.0073;0.0505
383;0.1868;3.0904;0.0000;-0.0234;0.0595
384;0.4986;3.0904;0.0000;-0.0385;0.0631
385;0.8105;3.0905;0.0000;-0.0337;0.0519
386;1.1223;3.0904;0.0000;-0.0475;0.0458
387;1.4341;3.0903;0.0000;-0.0555;0.0515
388;1.7458;3.0903;0.0000;-0.0497;0.0562
389;2.0575;3.0902;0.0000;-0.0455;0.0574
390;2.3686;3.0899;0.0000;-0.0454;0.0564
391;2.6777;3.0893;0.0000;-0.0560;0.0559
392;2.9823;3.0887;0.0000;-0.0505;0.0620
393;3.2799;3.0889;0.0000;-0.0382;0.0672
394;3.5715;3.0907;0.0000;-0.0234;0.0631
395;-4.3045;2.8302;0.0000;-0.0012;0.0296
396;-4.0037;2.8211;0.0000;0.0108;0.0433
397;-3.7017;2.8201;0.0000;0.0077;0.0547
398;-3.3956;2.8204;0.0000;0.0147;0.0569
399;-3.0864;2.8206;0.0000;0.0252;0.0629
400;-2.7756;2.8206;0.0000;0.0170;0.0649
401;-2.4642;2.8205;0.0000;-0.0012;0.0666
402;-2.1525;2.8204;0.0000;0.0010;0.0683
403;-1.8406;2.8204;0.0000;0.0024;0.0645
404;-1.5287;2.8204;0.0000;0.0007;0.0679
405;-1.2167;2.8204;0.0000;-0.0214;0.0590
406;-0.9049;2.8203;0.0000;-0.0232;0.0489
407;-0.5930;2.8202;0.0000;-0.0046;0.0541
408;-0.2811;2.8202;0.0000;-0.0118;0.0505
409;0.0308;2.8202;0.0000;-0.0123;0.0427
410;0.3427;2.8201;0.0000;-0.0273;0.0482
411;0.6546;2.8201;0.0000;-0.0290;0.0657
412;0.9664;2.8201;0.0000;-0.0411;0.0603
413;1.2782;2.8200;0.0000;-0.0632;0.0402
414;1.5899;2.8199;0.0000;-0.0577;0.0413
415;1.9016;2.8199;0.0000;-0.0438;0.0453
416;2.2131;2.8198;0.0000;-0.0400;0.0428
417;2.5233;2.8194;0.0000;-0.0561;0.0446
418;2.8294;2.8191;0.0000;-0.0570;0.0485
419;3.1257;2.8191;0.0000;-0.0341;0.0538
420;3.4027;2.8157;0.0000;-0.0252;0.0598
421;3.6393;2.8110;0.0000;-0.0267;0.0592
422;-4.3987;2.5748;0.0000;0.0040;0.0329
423;-4.1393;2.5524;0.0000;0.0093;0.0293
424;-3.8500;2.5492;0.0000;0.0055;0.0262
425;-3.5484;2.5496;0.0000;0.0079;0.0427
426;-3.2411;2.5501;0.0000;0.0198;0.0609
427;-2.9311;2.5503;0.0000;0.0168;0.0557
428;-2.6199;2.5502;0.0000;0.0071;0.0450
429;-2.3083;2.5501;0.0000;0.0040;0.0410
430;-1.9965;2.5501;0.0000;0.0074;0.0455
431;-1.6845;2.5501;0.0000;-0.0013;0.0529
432;-1.3726;2.5501;0.0000;-0.0099;0.0531
433;-1.0607;2.5501;0.0000;-0.0277;0.0491
434;-0.7489;2.5500;0.0000;-0.0208;0.0432
435;-0.4370;2.5499;0.0000;-0.0155;0.0376
436;-0.1251;2.5499;0.0000;-0.0157;0.0340
437;0.1868;2.5499;0.0000;-0.0167;0.0321
438;0.4986;2.5498;0.0000;-0.0287;0.0405
439;0.8105;2.5497;0.0000;-0.0317;0.0505
440;1.1223;2.5498;0.0000;-0.0522;0.0497
441;1.4340;2.5497;0.0000;-0.0591;0.0427
442;1.7458;2.5497;0.0000;-0.0494;0.0314
443;2.0575;2.5496;0.0000;-0.0432;0.0223
444;2.3684;2.5494;0.0000;-0.0546;0.0215
445;2.6770;2.5491;0.0000;-0.0625;0.0295
446;2.9797;2.5490;0.0000;-0.0385;0.0383
447;3.2732;2.5484;0.0000;-0.0215;0.0418
448;3.5632;2.5322;0.0000;-0.0278;0.0432
449;-4.3233;2.2898;0.0000;0.0039;0.0435
450;-4.0114;2.2798;0.0000;0.0036;0.0341
451;-3.7044;2.2792;0.0000;0.0101;0.0375
452;-3.3963;2.2796;0.0000;0.0198;0.0452
453;-3.0866;2.2799;0.0000;0.0093;0.0383
454;-2.7757;2.2800;0.0000;0.0146;0.0324
455;-2.4641;2.2800;0.0000;0.0187;0.0275
456;-2.1523;2.2799;0.0000;0.0074;0.0225
457;-1.8404;2.2798;0.0000;-0.0081;0.0315
458;-1.5286;2.2798;0.0000;-0.0097;0.0464
459;-1.2167;2.2798;0.0000;-0.0131;0.0551
460;-0.9048;2.2797;0.0000;-0.0254;0.0543
461;-0.5929;2.2797;0.0000;-0.0221;0.0525
462;-0.2811;2.2797;0.0000;-0.0232;0.0491
463;0.0308;2.2797;0.0000;-0.0204;0.0408
464;0.3427;2.2796;0.0000;-0.0271;0.0360
465;0.6545;2.2795;0.0000;-0.0333;0.0314
466;0.9663;2.2795;0.0000;-0.0416;0.0285
467;1.2781;2.2794;0.0000;-0.0504;0.0347
468;1.5899;2.2794;0.0000;-0.0539;0.0402
469;1.9016;2.2794;0.0000;-0.0571;0.0360
470;2.2130;2.2793;0.0000;-0.0431;0.0244
471;2.5228;2.2790;0.0000;-0.0548;0.0185
472;2.8274;2.2786;0.0000;-0.0527;0.0237
473;3.1196;2.2784;0.0000;-0.0363;0.0319
474;3.3894;2.2781;0.0000;-0.0306;0.0361
475;3.6289;2.2423;0.0000;-0.0262;0.0381
476;-4.4078;2.0144;0.0000;0.0044;0.0440
477;-4.1473;2.0100;0.0000;0.0015;0.0476
478;-3.8535;2.0095;0.0000;0.0083;0.0533
479;-3.5497;2.0095;0.0000;0.0180;0.0482
480;-3.2414;2.0097;0.0000;0.0142;0.0446
481;-2.9312;2.0098;0.0000;0.0110;0.0562
482;-2.6199;2.0098;0.0000;0.0141;0.0565
483;-2.3082;2.0097;0.0000;0.0042;0.0449
484;-1.9964;2.0097;0.0000;-0.0083;0.0351
485;-1.6845;2.0096;0.0000;-0.0070;0.0352
486;-1.3726;2.0095;0.0000;-0.0042;0.0406
487;-1.0607;2.0095;0.0000;-0.0181;0.0433
488;-0.7488;2.0094;0.0000;-0.0230;0.0503
489;-0.4370;2.0094;0.0000;-0.0272;0.0632
490;-0.1251;2.0094;0.0000;-0.0307;0.0640
491;0.1867;2.0094;0.0000;-0.0308;0.0522
492;0.4985;2.0093;0.0000;-0.0359;0.0423
493;0.8104;2.0093;0.0000;-0.0340;0.0343
494;1.1222;2.0093;0.0000;-0.0406;0.0335
495;1.4340;2.0092;0.0000;-0.0410;0.0386
496;1.7458;2.0092;0.0000;-0.0584;0.0450
497;2.0573;2.0091;0.0000;-0.0517;0.0472
498;2.3682;2.0090;0.0000;-0.0408;0.0385
499;2.6761;2.0083;0.0000;-0.0557;0.0312
500;2.9762;2.0071;0.0000;-0.0518;0.0350
501;3.2620;2.0066;0.0000;-0.0402;0.0332
502;3.5329;2.0106;0.0000;-0.0362;0.0278
503;-4.3233;1.7311;0.0000;0.0036;0.0328
504;-4.0113;1.7394;0.0000;0.0092;0.0490
505;-3.7043;1.7396;0.0000;0.0118;0.0505
506;-3.3963;1.7395;0.0000;0.0109;0.0489
507;-3.0865;1.7395;0.0000;0.0119;0.0567
508;-2.7756;1.7394;0.0000;0.0086;0.0613
509;-2.4641;1.7394;0.0000;-0.0034;0.0517
510;-2.1524;1.7394;0.0000;-0.0100;0.0471
511;-1.8405;1.7394;0.0000;-0.0041;0.0432
512;-1.5286;1.7393;0.0000;-0.0047;0.0292
513;-1.2167;1.7393;0.0000;-0.0187;0.0274
514;-0.9049;1.7392;0.0000;-0.0243;0.0307
515;-0.5930;1.7391;0.0000;-0.0208;0.0222
516;-0.2811;1.7390;0.0000;-0.0266;0.0220
517;0.0308;1.7391;0.0000;-0.0225;0.0320
518;0.3426;1.7391;0.0000;-0.0322;0.0314
519;0.6544;1.7390;0.0000;-0.0358;0.0278
520;0.9663;1.7390;0.0000;-0.0388;0.0370
521;1.2781;1.7390;0.0000;-0.0442;0.0433
522;1.5899;1.7389;0.0000;-0.0407;0.0319
523;1.9016;1.7389;0.0000;-0.0558;0.0306
524;2.2129;1.7388;0.0000;-0.0467;0.0457
525;2.5228;1.7383;0.0000;-0.0450;0.0479
526;2.8277;1.7368;0.0000;-0.0500;0.0372
527;3.1208;1.7351;0.0000;-0.0414;0.0294
528;3.3938;1.7373;0.0000;-0.0461;0.0265
529;3.6358;1.7859;0.0000;-0.0308;0.0275
530;-4.3970;1.4430;0.0000;-0.0009;0.0123
531;-4.1387;1.4664;0.0000;0.0038;0.0223
532;-3.8498;1.4693;0.0000;0.0136;0.0349
533;-3.5482;1.4693;0.0000;0.0160;0.0355
534;-3.2409;1.4693;0.0000;0.0082;0.0392
535;-2.9310;1.4692;0.0000;0.0063;0.0401
536;-2.6198;1.4692;0.0000;-0.0037;0.0362
537;-2.3082;1.4691;0.0000;-0.0114;0.0364
538;-1.9965;1.4691;0.0000;-0.0106;0.0428
539;-1.6846;1.4691;0.0000;-0.0061;0.0388
540;-1.3727;1.4691;0.0000;-0.0122;0.0281
541;-1.0608;1.4690;0.0000;-0.0258;0.0263
542;-0.7489;1.4690;0.0000;-0.0193;0.0196
543;-0.4370;1.4690;0.0000;-0.0196;0.0062
544;-0.1252;1.4689;0.0000;-0.0171;0.0004
545;0.1867;1.4689;0.0000;-0.0217;0.0000
546;0.4986;1.4689;0.0000;-0.0350;0.0001
547;0.8104;1.4688;0.0000;-0.0353;0.0074
548;1.1222;1.4688;0.0000;-0.0467;0.0135
549;1.4340;1.4687;0.0000;-0.0471;0.0063
550;1.7458;1.4687;0.0000;-0.0498;-0.0024
551;2.0574;1.4686;0.0000;-0.0536;0.0020
552;2.3683;1.4682;0.0000;-0.0467;0.0158
553;2.6772;1.4672;0.0000;-0.0422;0.0244
554;2.9805;1.4653;0.0000;-0.0428;0.0186
555;3.2754;1.4661;0.0000;-0.0403;0.0187
556;3.5672;1.4844;0.0000;-0.0379;0.0337
557;-4.3032;1.1872;0.0000;0.0024;0.0364
558;-4.0029;1.1970;0.0000;0.0097;0.0285
559;-3.7012;1.1985;0.0000;0.0196;0.0231
560;-3.3951;1.1989;0.0000;0.0110;0.0139
561;-3.0861;1.1989;0.0000;-0.0002;0.0156
562;-2.7754;1.1989;0.0000;-0.0020;0.0182
563;-2.4640;1.1989;0.0000;-0.0093;0.0201
564;-2.1523;1.1989;0.0000;-0.0127;0.0263
565;-1.8405;1.1988;0.0000;-0.0117;0.0275
566;-1.5286;1.1989;0.0000;-0.0161;0.0191
567;-1.2167;1.1988;0.0000;-0.0237;0.0087
568;-0.9049;1.1988;0.0000;-0.0229;0.0140
569;-0.5930;1.1987;0.0000;-0.0199;0.0183
570;-0.2811;1.1987;0.0000;-0.0204;0.0020
571;0.0308;1.1988;0.0000;-0.0185;-0.0065
572;0.3426;1.1988;0.0000;-0.0239;-0.0051
573;0.6545;1.1987;0.0000;-0.0297;-0.0078
574;0.9663;1.1987;0.0000;-0.0416;-0.0178
575;1.2781;1.1986;0.0000;-0.0519;-0.0214
576;1.5899;1.1986;0.0000;-0.0504;-0.0079
577;1.9016;1.1986;0.0000;-0.0506;-0.0086
578;2.2130;1.1984;0.0000;-0.0525;-0.0113
579;2.5234;1.1976;0.0000;-0.0425;0.0029
580;2.8300;1.1956;0.0000;-0.0393;0.0131
581;3.1269;1.1934;0.0000;-0.0384;0.0228
582;3.4030;1.1993;0.0000;-0.0388;0.0341
583;3.6412;1.2110;0.0000;-0.0327;0.0373
584;-4.4249;0.9197;0.0000;0.0047;0.0331
585;-4.1436;0.9262;0.0000;0.0091;0.0275
586;-3.8502;0.9277;0.0000;0.0170;0.0095
587;-3.5480;0.9284;0.0000;0.0192;0.0015
588;-3.2406;0.9287;0.0000;-0.0016;-0.0038
589;-2.9308;0.9288;0.0000;-0.0035;-0.0018
590;-2.6197;0.9288;0.0000;-0.0117;0.0124
591;-2.3081;0.9287;0.0000;-0.0181;0.0153
592;-1.9964;0.9286;0.0000;-0.0142;0.0063
593;-1.6845;0.9287;0.0000;-0.0210;0.0018
594;-1.3727;0.9287;0.0000;-0.0278;-0.0042
595;-1.0608;0.9287;0.0000;-0.0236;-0.0085
596;-0.7490;0.9285;0.0000;-0.0165;-0.0013
597;-0.4371;0.9286;0.0000;-0.0237;-0.0043
598;-0.1252;0.9287;0.0000;-0.0232;-0.0065
599;0.1867;0.9286;0.0000;-0.0151;0.0011
600;0.4986;0.9286;0.0000;-0.0193;0.0000
601;0.8104;0.9286;0.0000;-0.0366;-0.0067
602;1.1222;0.9286;0.0000;-0.0504;-0.0154
603;1.4340;0.9285;0.0000;-0.0530;-0.0132
604;1.7457;0.9284;0.0000;-0.0448;-0.0083
605;2.0575;0.9284;0.0000;-0.0484;-0.0087
606;2.3688;0.9279;0.0000;-0.0477;-0.0009
607;2.6791;0.9263;0.0000;-0.0368;0.0077
608;2.9864;0.9227;0.0000;-0.0356;0.0185
609;3.2873;0.9199;0.0000;-0.0309;0.0230
610;3.5764;0.9288;0.0000;-0.0391;0.0187
611;-4.3036;0.6612;0.0000;0.0063;0.0051
612;-4.0029;0.6575;0.0000;0.0121;0.0051
613;-3.7011;0.6578;0.0000;0.0166;0.0042
614;-3.3950;0.6584;0.0000;0.0043;0.0036
615;-3.0860;0.6586;0.0000;-0.0068;0.0046
616;-2.7753;0.6586;0.0000;-0.0077;0.0052
617;-2.4639;0.6585;0.0000;-0.0195;0.0031
618;-2.1523;0.6585;0.0000;-0.0203;-0.0057
619;-1.8404;0.6585;0.0000;-0.0268;-0.0103
620;-1.5287;0.6586;0.0000;-0.0390;-0.0010
621;-1.2169;0.6586;0.0000;-0.0258;-0.0027
622;-0.9050;0.6585;0.0000;-0.0065;-0.0166
623;-0.5930;0.6584;0.0000;-0.0128;-0.0139
624;-0.2811;0.6585;0.0000;-0.0302;0.0054
625;0.0307;0.6585;0.0000;-0.0244;0.0087
626;0.3426;0.6585;0.0000;-0.0171;-0.0021
627;0.6544;0.6585;0.0000;-0.0308;-0.0029
628;0.9662;0.6584;0.0000;-0.0436;0.0021
629;1.2780;0.6584;0.0000;-0.0477;-0.0050
630;1.5898;0.6583;0.0000;-0.0433;-0.0099
631;1.9017;0.6583;0.0000;-0.0384;0.0044
632;2.2134;0.6581;0.0000;-0.0409;0.0030
633;2.5254;0.6573;0.0000;-0.0365;-0.0098
634;2.8382;0.6552;0.0000;-0.0364;-0.0022
635;3.1543;0.6525;0.0000;-0.0329;-0.0007
636;3.4803;0.6606;0.0000;-0.0356;-0.0119
637;-4.3991;0.4023;0.0000;0.0040;0.0000
638;-4.1394;0.3869;0.0000;0.0133;-0.0091
639;-3.8498;0.3867;0.0000;0.0142;-0.0054
640;-3.5480;0.3877;0.0000;0.0039;0.0101
641;-3.2407;0.3883;0.0000;-0.0144;0.0110
642;-2.9308;0.3884;0.0000;-0.0096;-0.0061
643;-2.6197;0.3884;0.0000;-0.0151;-0.0178
644;-2.3081;0.3884;0.0000;-0.0215;-0.0197
645;-1.9963;0.3884;0.0000;-0.0246;-0.0248
646;-1.6846;0.3884;0.0000;-0.0423;-0.0195
647;-1.3728;0.3884;0.0000;-0.0334;-0.0051
648;-1.0609;0.3884;0.0000;-0.0086;-0.0103
649;-0.7490;0.3884;0.0000;-0.0093;-0.0214
650;-0.4371;0.3883;0.0000;-0.0309;-0.0081
651;-0.1253;0.3883;0.0000;-0.0358;-0.0002
652;0.1866;0.3883;0.0000;-0.0182;-0.0033
653;0.4985;0.3883;0.0000;-0.0234;-0.0015
654;0.8103;0.3883;0.0000;-0.0341;-0.0037
655;1.1221;0.3883;0.0000;-0.0393;-0.0021
656;1.4339;0.3883;0.0000;-0.0453;0.0031
657;1.7457;0.3882;0.0000;-0.0347;0.0077
658;2.0576;0.3881;0.0000;-0.0369;0.0105
659;2.3696;0.3878;0.0000;-0.0341;0.0022
660;2.6822;0.3870;0.0000;-0.0370;-0.0114
661;2.9964;0.3856;0.0000;-0.0351;-0.0090
662;3.3116;0.3861;0.0000;-0.0308;0.0091
663;3.6136;0.4061;0.0000;-0.0304;0.0179
664;-4.3240;0.1209;0.0000;0.0143;-0.0064
665;-4.0112;0.1168;0.0000;0.0081;-0.0088
666;-3.7039;0.1174;0.0000;-0.0027;-0.0159
667;-3.3959;0.1179;0.0000;-0.0116;-0.0081
668;-3.0862;0.1183;0.0000;-0.0092;-0.0104
669;-2.7753;0.1184;0.0000;-0.0177;-0.0215
670;-2.4639;0.1183;0.0000;-0.0325;-0.0252
671;-2.1523;0.1184;0.0000;-0.0253;-0.0222
672;-1.8404;0.1184;0.0000;-0.0266;-0.0231
673;-1.5287;0.1183;0.0000;-0.0453;-0.0217
674;-1.2169;0.1183;0.0000;-0.0246;-0.0084
675;-0.9049;0.1183;0.0000;-0.0086;-0.0035
676;-0.5931;0.1183;0.0000;-0.0261;-0.0052
677;-0.2812;0.1182;0.0000;-0.0386;-0.0094
678;0.0306;0.1182;0.0000;-0.0229;-0.0130
679;0.3425;0.1182;0.0000;-0.0217;-0.0003
680;0.6543;0.1182;0.0000;-0.0294;0.0139
681;0.9662;0.1182;0.0000;-0.0245;0.0131
682;1.2780;0.1181;0.0000;-0.0378;0.0149
683;1.5898;0.1180;0.0000;-0.0364;0.0151
684;1.9017;0.1180;0.0000;-0.0383;0.0101
685;2.2137;0.1179;0.0000;-0.0355;0.0039
686;2.5264;0.1177;0.0000;-0.0298;-0.0023
687;2.8412;0.1174;0.0000;-0.0336;0.0028
688;3.1610;0.1173;0.0000;-0.0286;0.0192
689;3.4913;0.1160;0.0000;-0.0275;0.0364
690;-4.4030;-0.1565;0.0000;0.0172;-0.0328
691;-4.1451;-0.1543;0.0000;0.0049;-0.0223
692;-3.8521;-0.1521;0.0000;-0.0042;-0.0263
693;-3.5488;-0.1519;0.0000;-0.0104;-0.0297
694;-3.2409;-0.1518;0.0000;-0.0057;-0.0189
695;-2.9307;-0.1517;0.0000;-0.0163;-0.0174
696;-2.6196;-0.1517;0.0000;-0.0402;-0.0252
697;-2.3081;-0.1517;0.0000;-0.0434;-0.0188
698;-1.9964;-0.1518;0.0000;-0.0248;0.0009
699;-1.6845;-0.1517;0.0000;-0.0333;0.0002
700;-1.3728;-0.1518;0.0000;-0.0404;-0.0133
701;-1.0609;-0.1518;0.0000;-0.0199;-0.0058
702;-0.7490;-0.1519;0.0000;-0.0212;-0.0017
703;-0.4372;-0.1519;0.0000;-0.0311;-0.0145
704;-0.1254;-0.1519;0.0000;-0.0252;-0.0112
705;0.1865;-0.1519;0.0000;-0.0209;0.0005
706;0.4984;-0.1520;0.0000;-0.0305;0.0154
707;0.8102;-0.1521;0.0000;-0.0153;0.0274
708;1.1222;-0.1521;0.0000;-0.0168;0.0105
709;1.4340;-0.1521;0.0000;-0.0369;0.0015
710;1.7459;-0.1522;0.0000;-0.0419;0.0139
711;2.0577;-0.1522;0.0000;-0.0426;0.0168
712;2.3699;-0.1521;0.0000;-0.0213;0.0191
713;2.6830;-0.1521;0.0000;-0.0226;0.0323
714;2.9973;-0.1520;0.0000;-0.0277;0.0327
715;3.3110;-0.1524;0.0000;-0.0270;0.0194
716;3.6128;-0.1762;0.0000;-0.0288;0.0107
717;-4.3195;-0.4363;0.0000;0.0017;-0.0361
718;-4.0083;-0.4218;0.0000;0.0054;-0.0427
719;-3.7026;-0.4214;0.0000;-0.0032;-0.0280
720;-3.3953;-0.4217;0.0000;-0.0131;-0.0174
721;-3.0859;-0.4218;0.0000;-0.0176;-0.0242
722;-2.7752;-0.4217;0.0000;-0.0330;-0.0284
723;-2.4638;-0.4218;0.0000;-0.0444;-0.0229
724;-2.1522;-0.4219;0.0000;-0.0433;-0.0169
725;-1.8405;-0.4220;0.0000;-0.0322;-0.0018
726;-1.5287;-0.4219;0.0000;-0.0354;0.0007
727;-1.2168;-0.4219;0.0000;-0.0336;-0.0109
728;-0.9050;-0.4220;0.0000;-0.0296;-0.0132
729;-0.5932;-0.4220;0.0000;-0.0254;-0.0183
730;-0.2813;-0.4220;0.0000;-0.0141;-0.0180
731;0.0306;-0.4221;0.0000;-0.0126;-0.0085
732;0.3425;-0.4221;0.0000;-0.0253;-0.0036
733;0.6544;-0.4223;0.0000;-0.0255;-0.0061
734;0.9662;-0.4223;0.0000;-0.0130;-0.0066
735;1.2781;-0.4222;0.0000;-0.0227;-0.0018
736;1.5900;-0.4223;0.0000;-0.0386;0.0128
737;1.9018;-0.4224;0.0000;-0.0472;0.0214
738;2.2138;-0.4224;0.0000;-0.0303;0.0266
739;2.5265;-0.4223;0.0000;-0.0112;0.0364
740;2.8405;-0.4223;0.0000;-0.0219;0.0281
741;3.1569;-0.4229;0.0000;-0.0244;0.0178
742;3.4785;-0.4266;0.0000;-0.0233;0.0129
743;-4.3934;-0.7260;0.0000;-0.0016;-0.0217
744;-4.1331;-0.6920;0.0000;0.0051;-0.0308
745;-3.8463;-0.6910;0.0000;0.0107;-0.0255
746;-3.5464;-0.6917;0.0000;-0.0099;-0.0210
747;-3.2399;-0.6918;0.0000;-0.0289;-0.0332
748;-2.9304;-0.6918;0.0000;-0.0338;-0.0372
749;-2.6195;-0.6919;0.0000;-0.0414;-0.0305
750;-2.3080;-0.6919;0.0000;-0.0488;-0.0300
751;-1.9964;-0.6920;0.0000;-0.0397;-0.0342
752;-1.6846;-0.6921;0.0000;-0.0378;-0.0305
753;-1.3728;-0.6921;0.0000;-0.0330;-0.0159
754;-1.0609;-0.6921;0.0000;-0.0289;-0.0108
755;-0.7491;-0.6921;0.0000;-0.0311;-0.0152
756;-0.4373;-0.6921;0.0000;-0.0197;-0.0162
757;-0.1253;-0.6921;0.0000;-0.0110;-0.0092
758;0.1865;-0.6922;0.0000;-0.0203;-0.0028
759;0.4984;-0.6923;0.0000;-0.0154;-0.0059
760;0.8103;-0.6923;0.0000;-0.0124;-0.0107
761;1.1222;-0.6923;0.0000;-0.0210;-0.0062
762;1.4341;-0.6924;0.0000;-0.0347;0.0012
763;1.7459;-0.6926;0.0000;-0.0475;0.0125
764;2.0578;-0.6926;0.0000;-0.0397;0.0274
765;2.3699;-0.6926;0.0000;-0.0102;0.0210
766;2.6825;-0.6926;0.0000;-0.0038;0.0063
767;2.9948;-0.6933;0.0000;-0.0230;0.0073
768;3.3034;-0.6978;0.0000;-0.0232;0.0149
769;3.5903;-0.6813;0.0000;-0.0244;0.0208
770;-4.2885;-0.9617;0.0000;-0.0056;-0.0134
771;-3.9954;-0.9623;0.0000;-0.0035;-0.0126
772;-3.6977;-0.9624;0.0000;0.0015;-0.0296
773;-3.3934;-0.9622;0.0000;-0.0176;-0.0445
774;-3.0852;-0.9619;0.0000;-0.0328;-0.0374
775;-2.7749;-0.9619;0.0000;-0.0395;-0.0193
776;-2.4637;-0.9619;0.0000;-0.0546;-0.0098
777;-2.1522;-0.9620;0.0000;-0.0467;-0.0195
778;-1.8405;-0.9621;0.0000;-0.0332;-0.0264
779;-1.5287;-0.9621;0.0000;-0.0393;-0.0166
780;-1.2168;-0.9622;0.0000;-0.0283;-0.0093
781;-0.9050;-0.9622;0.0000;-0.0252;-0.0139
782;-0.5931;-0.9622;0.0000;-0.0274;-0.0081
783;-0.2813;-0.9622;0.0000;-0.0117;0.0072
784;0.0307;-0.9623;0.0000;-0.0176;0.0126
785;0.3425;-0.9624;0.0000;-0.0231;0.0111
786;0.6544;-0.9625;0.0000;-0.0137;0.0126
787;0.9663;-0.9625;0.0000;-0.0214;0.0131
788;1.2782;-0.9625;0.0000;-0.0289;0.0102
789;1.5900;-0.9626;0.0000;-0.0388;0.0068
790;1.9019;-0.9628;0.0000;-0.0416;0.0043
791;2.2139;-0.9628;0.0000;-0.0208;0.0080
792;2.5268;-0.9627;0.0000;-0.0038;0.0132
793;2.8416;-0.9627;0.0000;-0.0157;0.0166
794;3.1623;-0.9638;0.0000;-0.0210;0.0113
795;3.5012;-0.9679;0.0000;-0.0169;0.0077
796;-4.3921;-1.1957;0.0000;-0.0045;0.0051
797;-4.1317;-1.2322;0.0000;-0.0144;0.0025
798;-3.8454;-1.2339;0.0000;-0.0022;-0.0084
799;-3.5458;-1.2329;0.0000;-0.0030;-0.0301
800;-3.2396;-1.2323;0.0000;-0.0217;-0.0339
801;-2.9301;-1.2321;0.0000;-0.0321;-0.0142
802;-2.6193;-1.2321;0.0000;-0.0520;-0.0053
803;-2.3080;-1.2322;0.0000;-0.0620;-0.0095
804;-1.9963;-1.2321;0.0000;-0.0328;-0.0078
805;-1.6845;-1.2322;0.0000;-0.0346;-0.0001
806;-1.3727;-1.2323;0.0000;-0.0481;0.0030
807;-1.0609;-1.2323;0.0000;-0.0232;-0.0025
808;-0.7490;-1.2323;0.0000;-0.0151;-0.0028
809;-0.4371;-1.2324;0.0000;-0.0173;0.0103
810;-0.1252;-1.2325;0.0000;-0.0151;0.0124
811;0.1867;-1.2326;0.0000;-0.0168;0.0098
812;0.4986;-1.2326;0.0000;-0.0245;0.0083
813;0.8104;-1.2327;0.0000;-0.0290;0.0050
814;1.1222;-1.2327;0.0000;-0.0322;0.0115
815;1.4341;-1.2328;0.0000;-0.0309;0.0094
816;1.7459;-1.2329;0.0000;-0.0385;0.0033
817;2.0578;-1.2329;0.0000;-0.0232;0.0059
818;2.3700;-1.2329;0.0000;-0.0035;0.0117
819;2.6823;-1.2327;0.0000;-0.0138;0.0156
820;2.9941;-1.2324;0.0000;-0.0208;0.0124
821;3.3020;-1.2324;0.0000;-0.0111;0.0087
822;3.5862;-1.2548;0.0000;-0.0147;0.0076
823;-4.3187;-1.4855;0.0000;-0.0089;0.0088
824;-4.0074;-1.5029;0.0000;-0.0030;0.0000
825;-3.7017;-1.5037;0.0000;0.0055;-0.0104
826;-3.3947;-1.5027;0.0000;-0.0174;-0.0114
827;-3.0855;-1.5023;0.0000;-0.0303;-0.0077
828;-2.7749;-1.5022;0.0000;-0.0394;-0.0147
829;-2.4636;-1.5022;0.0000;-0.0596;-0.0254
830;-2.1521;-1.5022;0.0000;-0.0494;-0.0171
831;-1.8404;-1.5023;0.0000;-0.0332;-0.0096
832;-1.5286;-1.5024;0.0000;-0.0536;-0.0070
833;-1.2168;-1.5025;0.0000;-0.0394;0.0015
834;-0.9050;-1.5025;0.0000;-0.0101;0.0112
835;-0.5930;-1.5025;0.0000;-0.0137;0.0085
836;-0.2811;-1.5026;0.0000;-0.0237;0.0028
837;0.0307;-1.5027;0.0000;-0.0174;0.0109
838;0.3426;-1.5028;0.0000;-0.0171;0.0157
839;0.6545;-1.5028;0.0000;-0.0272;0.0092
840;0.9663;-1.5028;0.0000;-0.0273;0.0080
841;1.2782;-1.5028;0.0000;-0.0249;0.0118
842;1.5900;-1.5029;0.0000;-0.0340;0.0128
843;1.9019;-1.5031;0.0000;-0.0298;0.0188
844;2.2139;-1.5031;0.0000;-0.0093;0.0185
845;2.5264;-1.5031;0.0000;-0.0101;0.0063
846;2.8395;-1.5030;0.0000;-0.0143;0.0023
847;3.1544;-1.5030;0.0000;-0.0141;0.0077
848;3.4757;-1.5086;0.0000;-0.0172;0.0082
849;-4.4022;-1.7653;0.0000;0.0061;0.0198
850;-4.1445;-1.7690;0.0000;0.0059;0.0114
851;-3.8515;-1.7730;0.0000;0.0080;0.0027
852;-3.5482;-1.7730;0.0000;-0.0048;0.0042
853;-3.2403;-1.7725;0.0000;-0.0267;0.0092
854;-2.9303;-1.7723;0.0000;-0.0361;-0.0088
855;-2.6193;-1.7723;0.0000;-0.0497;-0.0249
856;-2.3079;-1.7723;0.0000;-0.0467;-0.0118
857;-1.9961;-1.7724;0.0000;-0.0402;-0.0066
858;-1.6844;-1.7725;0.0000;-0.0540;-0.0092
859;-1.3727;-1.7726;0.0000;-0.0515;-0.0064
860;-1.0608;-1.7726;0.0000;-0.0196;0.0021
861;-0.7489;-1.7727;0.0000;-0.0156;0.0110
862;-0.4371;-1.7727;0.0000;-0.0226;0.0098
863;-0.1252;-1.7728;0.0000;-0.0217;0.0136
864;0.1867;-1.7729;0.0000;-0.0169;0.0184
865;0.4986;-1.7730;0.0000;-0.0255;0.0115
866;0.8104;-1.7730;0.0000;-0.0221;0.0138
867;1.1223;-1.7730;0.0000;-0.0124;0.0223
868;1.4342;-1.7731;0.0000;-0.0234;0.0248
869;1.7460;-1.7733;0.0000;-0.0393;0.0190
870;2.0579;-1.7733;0.0000;-0.0245;0.0039
871;2.3700;-1.7733;0.0000;-0.0134;-0.0015
872;2.6822;-1.7732;0.0000;-0.0128;0.0009
873;2.9942;-1.7729;0.0000;-0.0073;0.0024
874;3.3041;-1.7716;0.0000;-0.0090;0.0035
875;3.6103;-1.7666;0.0000;-0.0157;-0.0037
876;-4.3225;-2.0432;0.0000;0.0115;0.0203
877;-4.0107;-2.0411;0.0000;0.0175;0.0132
878;-3.7034;-2.0425;0.0000;0.0112;0.0203
879;-3.3954;-2.0426;0.0000;-0.0164;0.0196
880;-3.0857;-2.0425;0.0000;-0.0350;0.0097
881;-2.7750;-2.0423;0.0000;-0.0424;-0.0025
882;-2.4636;-2.0424;0.0000;-0.0402;-0.0055
883;-2.1519;-2.0425;0.0000;-0.0359;0.0006
884;-1.8402;-2.0426;0.0000;-0.0452;0.0009
885;-1.5284;-2.0427;0.0000;-0.0614;-0.0050
886;-1.2167;-2.0427;0.0000;-0.0387;-0.0097
887;-0.9048;-2.0428;0.0000;-0.0131;-0.0119
888;-0.5929;-2.0429;0.0000;-0.0252;-0.0002
889;-0.2811;-2.0429;0.0000;-0.0300;0.0112
890;0.0308;-2.0431;0.0000;-0.0215;0.0034
891;0.3426;-2.0432;0.0000;-0.0174;-0.0043
892;0.6545;-2.0432;0.0000;-0.0196;0.0060
893;0.9664;-2.0432;0.0000;-0.0151;0.0189
894;1.2783;-2.0433;0.0000;-0.0103;0.0156
895;1.5902;-2.0434;0.0000;-0.0330;0.0011
896;1.9021;-2.0434;0.0000;-0.0390;-0.0065
897;2.2140;-2.0434;0.0000;-0.0249;-0.0029
898;2.5263;-2.0435;0.0000;-0.0130;-0.0023
899;2.8392;-2.0434;0.0000;0.0009;-0.0031
900;3.1535;-2.0420;0.0000;-0.0037;0.0012
901;3.4740;-2.0304;0.0000;-0.0144;-0.0060
902;-4.3969;-2.3242;0.0000;0.0115;0.0378
903;-4.1381;-2.3112;0.0000;0.0153;0.0388
904;-3.8492;-2.3119;0.0000;0.0188;0.0348
905;-3.5475;-2.3126;0.0000;-0.0060;0.0264
906;-3.2402;-2.3126;0.0000;-0.0295;0.0165
907;-2.9303;-2.3126;0.0000;-0.0333;0.0163
908;-2.6192;-2.3125;0.0000;-0.0371;0.0172
909;-2.3077;-2.3126;0.0000;-0.0414;0.0061
910;-1.9961;-2.3127;0.0000;-0.0366;-0.0027
911;-1.6842;-2.3127;0.0000;-0.0419;-0.0053
912;-1.3725;-2.3128;0.0000;-0.0559;-0.0005
913;-1.0607;-2.3129;0.0000;-0.0269;0.0019
914;-0.7488;-2.3129;0.0000;-0.0201;0.0008
915;-0.4370;-2.3131;0.0000;-0.0330;0.0069
916;-0.1251;-2.3132;0.0000;-0.0158;0.0011
917;0.1868;-2.3132;0.0000;-0.0166;-0.0123
918;0.4987;-2.3133;0.0000;-0.0236;-0.0085
919;0.8105;-2.3134;0.0000;-0.0255;0.0034
920;1.1224;-2.3135;0.0000;-0.0185;0.0160
921;1.4343;-2.3135;0.0000;-0.0229;0.0172
922;1.7461;-2.3135;0.0000;-0.0392;0.0054
923;2.0580;-2.3136;0.0000;-0.0279;0.0016
924;2.3700;-2.3137;0.0000;-0.0127;-0.0020
925;2.6821;-2.3139;0.0000;-0.0025;-0.0080
926;2.9933;-2.3142;0.0000;-0.0012;-0.0092
927;3.2987;-2.3103;0.0000;-0.0198;-0.0115
928;3.5811;-2.2803;0.0000;-0.0268;-0.0161
929;-4.3020;-2.5847;0.0000;0.0110;0.0517
930;-4.0020;-2.5829;0.0000;0.0195;0.0538
931;-3.7004;-2.5830;0.0000;0.0047;0.0467
932;-3.3944;-2.5829;0.0000;-0.0196;0.0291
933;-3.0854;-2.5828;0.0000;-0.0244;0.0220
934;-2.7748;-2.5827;0.0000;-0.0319;0.0202
935;-2.4635;-2.5827;0.0000;-0.0396;0.0114
936;-2.1519;-2.5828;0.0000;-0.0425;-0.0030
937;-1.8401;-2.5828;0.0000;-0.0353;-0.0128
938;-1.5283;-2.5829;0.0000;-0.0477;-0.0077
939;-1.2166;-2.5831;0.0000;-0.0386;0.0018
940;-0.9047;-2.5831;0.0000;-0.0135;0.0092
941;-0.5928;-2.5832;0.0000;-0.0270;0.0079
942;-0.2810;-2.5833;0.0000;-0.0202;-0.0046
943;0.0310;-2.5833;0.0000;-0.0191;-0.0105
944;0.3428;-2.5834;0.0000;-0.0318;-0.0029
945;0.6546;-2.5834;0.0000;-0.0282;-0.0004
946;0.9665;-2.5836;0.0000;-0.0245;-0.0003
947;1.2784;-2.5837;0.0000;-0.0225;0.0050
948;1.5902;-2.5837;0.0000;-0.0355;0.0097
949;1.9020;-2.5837;0.0000;-0.0329;0.0087
950;2.2142;-2.5838;0.0000;-0.0077;-0.0020
951;2.5270;-2.5838;0.0000;-0.0093;-0.0074
952;2.8417;-2.5841;0.0000;-0.0101;-0.0051
953;3.1621;-2.5835;0.0000;-0.0132;-0.0089
954;3.4961;-2.5706;0.0000;-0.0171;-0.0114
955;-4.4216;-2.8433;0.0000;0.0276;0.0604
956;-4.1420;-2.8511;0.0000;0.0243;0.0675
957;-3.8490;-2.8533;0.0000;0.0106;0.0674
958;-3.5471;-2.8533;0.0000;-0.0150;0.0545
959;-3.2400;-2.8531;0.0000;-0.0163;0.0402
960;-2.9302;-2.8530;0.0000;-0.0226;0.0259
961;-2.6191;-2.8529;0.0000;-0.0345;0.0112
962;-2.3077;-2.8529;0.0000;-0.0422;0.0043
963;-1.9960;-2.8529;0.0000;-0.0367;0.0069
964;-1.6842;-2.8530;0.0000;-0.0295;0.0090
965;-1.3724;-2.8531;0.0000;-0.0403;0.0012
966;-1.0605;-2.8532;0.0000;-0.0234;-0.0069
967;-0.7487;-2.8533;0.0000;-0.0217;0.0002
968;-0.4368;-2.8534;0.0000;-0.0290;0.0045
969;-0.1250;-2.8534;0.0000;-0.0287;-0.0080
970;0.1869;-2.8535;0.0000;-0.0341;-0.0063
971;0.4987;-2.8536;0.0000;-0.0272;0.0141
972;0.8106;-2.8537;0.0000;-0.0266;0.0131
973;1.1224;-2.8538;0.0000;-0.0200;-0.0055
974;1.4343;-2.8538;0.0000;-0.0209;-0.0082
975;1.7462;-2.8539;0.0000;-0.0332;-0.0054
976;2.0581;-2.8539;0.0000;-0.0201;-0.0048
977;2.3704;-2.8538;0.0000;-0.0080;0.0029
978;2.6832;-2.8538;0.0000;-0.0101;0.0043
979;2.9970;-2.8536;0.0000;-0.0099;-0.0075
980;3.3083;-2.8532;0.0000;-0.0156;-0.0164
981;3.5893;-2.8534;0.0000;-0.0132;-0.0155
982;-4.3005;-3.1114;0.0000;0.0280;0.0633
983;-4.0010;-3.1224;0.0000;0.0208;0.0608
984;-3.6998;-3.1239;0.0000;0.0026;0.0520
985;-3.3941;-3.1236;0.0000;-0.0115;0.0459
986;-3.0853;-3.1233;0.0000;-0.0175;0.0324
987;-2.7747;-3.1231;0.0000;-0.0304;0.0215
988;-2.4635;-3.1231;0.0000;-0.0362;0.0216
989;-2.1518;-3.1231;0.0000;-0.0361;0.0249
990;-1.8401;-3.1232;0.0000;-0.0252;0.0308
991;-1.5282;-3.1233;0.0000;-0.0321;0.0230
992;-1.2164;-3.1233;0.0000;-0.0388;0.0114
993;-0.9046;-3.1234;0.0000;-0.0255;0.0101
994;-0.5927;-3.1235;0.0000;-0.0231;0.0115
995;-0.2809;-3.1236;0.0000;-0.0292;0.0131
996;0.0310;-3.1235;0.0000;-0.0373;0.0169
997;0.3428;-3.1237;0.0000;-0.0278;0.0222
998;0.6547;-3.1239;0.0000;-0.0260;0.0214
999;0.9665;-3.1239;0.0000;-0.0201;0.0087
1000;1.2784;-3.1239;0.0000;-0.0118;0.0012
1001;1.5903;-3.1240;0.0000;-0.0222;-0.0046
1002;1.9022;-3.1240;0.0000;-0.0303;-0.0141
1003;2.2143;-3.1240;0.0000;-0.0208;-0.0013
1004;2.5271;-3.1239;0.0000;-0.0117;0.0173
1005;2.8419;-3.1233;0.0000;-0.0061;0.0056
1006;3.1620;-3.1234;0.0000;-0.0134;-0.0183
1007;3.4954;-3.1362;0.0000;-0.0187;-0.0205
1008;-4.3934;-3.3659;0.0000;0.0227;0.0630
1009;-4.1357;-3.3906;0.0000;0.0225;0.0489
1010;-3.8476;-3.3947;0.0000;0.0178;0.0370
1011;-3.5467;-3.3944;0.0000;-0.0041;0.0424
1012;-3.2399;-3.3938;0.0000;-0.0142;0.0424
1013;-2.9301;-3.3935;0.0000;-0.0196;0.0379
1014;-2.6192;-3.3934;0.0000;-0.0307;0.0364
1015;-2.3077;-3.3934;0.0000;-0.0329;0.0347
1016;-1.9959;-3.3934;0.0000;-0.0297;0.0286
1017;-1.6841;-3.3935;0.0000;-0.0258;0.0168
1018;-1.3723;-3.3935;0.0000;-0.0321;0.0177
1019;-1.0605;-3.3935;0.0000;-0.0318;0.0220
1020;-0.7486;-3.3936;0.0000;-0.0248;0.0067
1021;-0.4368;-3.3937;0.0000;-0.0249;0.0037
1022;-0.1249;-3.3938;0.0000;-0.0339;0.0198
1023;0.1869;-3.3939;0.0000;-0.0295;0.0270
1024;0.4988;-3.3940;0.0000;-0.0299;0.0207
1025;0.8106;-3.3941;0.0000;-0.0269;0.0124
1026;1.1225;-3.3941;0.0000;-0.0105;0.0054
1027;1.4344;-3.3941;0.0000;-0.0118;0.0008
1028;1.7463;-3.3941;0.0000;-0.0352;0.0014
1029;2.0582;-3.3941;0.0000;-0.0367;0.0014
1030;2.3702;-3.3941;0.0000;-0.0128;0.0044
1031;2.6823;-3.3937;0.0000;-0.0039;0.0061
1032;2.9932;-3.3933;0.0000;-0.0137;-0.0034
1033;3.2975;-3.3973;0.0000;-0.0179;-0.0140
1034;3.5761;-3.4276;0.0000;-0.0173;-0.0151
1035;-4.3184;-3.6521;0.0000;0.0185;0.0636
1036;-4.0085;-3.6644;0.0000;0.0256;0.0498
1037;-3.7024;-3.6651;0.0000;0.0118;0.0515
1038;-3.3950;-3.6645;0.0000;-0.0147;0.0659
1039;-3.0856;-3.6640;0.0000;-0.0172;0.0689
1040;-2.7748;-3.6638;0.0000;-0.0208;0.0600
1041;-2.4634;-3.6637;0.0000;-0.0303;0.0591
1042;-2.1518;-3.6637;0.0000;-0.0304;0.0534
1043;-1.8400;-3.6637;0.0000;-0.0243;0.0357
1044;-1.5282;-3.6637;0.0000;-0.0263;0.0325
1045;-1.2163;-3.6638;0.0000;-0.0242;0.0392
1046;-0.9045;-3.6638;0.0000;-0.0254;0.0269
1047;-0.5926;-3.6638;0.0000;-0.0280;0.0126
1048;-0.2808;-3.6640;0.0000;-0.0321;0.0121
1049;0.0310;-3.6640;0.0000;-0.0276;0.0153
1050;0.3429;-3.6642;0.0000;-0.0207;0.0156
1051;0.6548;-3.6643;0.0000;-0.0290;0.0091
1052;0.9667;-3.6642;0.0000;-0.0228;0.0074
1053;1.2785;-3.6642;0.0000;-0.0191;0.0137
1054;1.5904;-3.6643;0.0000;-0.0309;0.0180
1055;1.9022;-3.6643;0.0000;-0.0388;0.0174
1056;2.2142;-3.6643;0.0000;-0.0214;0.0054
1057;2.5264;-3.6642;0.0000;-0.0066;-0.0084
1058;2.8389;-3.6642;0.0000;-0.0164;-0.0056
1059;3.1521;-3.6661;0.0000;-0.0201;0.0029
1060;3.4710;-3.6784;0.0000;-0.0138;0.0047
1061;-4.4048;-3.9266;0.0000;0.0151;0.0600
1062;-4.1449;-3.9342;0.0000;0.0197;0.0618
1063;-3.8517;-3.9355;0.0000;0.0243;0.0647
1064;-3.5482;-3.9354;0.0000;0.0045;0.0750
1065;-3.2404;-3.9351;0.0000;-0.0186;0.0894
1066;-2.9303;-3.9347;0.0000;-0.0183;0.0911
1067;-2.6192;-3.9345;0.0000;-0.0247;0.0823
1068;-2.3077;-3.9345;0.0000;-0.0319;0.0710
1069;-1.9959;-3.9344;0.0000;-0.0169;0.0603
1070;-1.6840;-3.9343;0.0000;-0.0199;0.0593
1071;-1.3722;-3.9344;0.0000;-0.0280;0.0523
1072;-1.0604;-3.9344;0.0000;-0.0267;0.0443
1073;-0.7485;-3.9343;0.0000;-0.0292;0.0444
1074;-0.4367;-3.9344;0.0000;-0.0279;0.0348
1075;-0.1248;-3.9344;0.0000;-0.0203;0.0248
1076;0.1871;-3.9344;0.0000;-0.0188;0.0158
1077;0.4990;-3.9345;0.0000;-0.0205;0.0083
1078;0.8108;-3.9345;0.0000;-0.0266;0.0147
1079;1.1227;-3.9345;0.0000;-0.0293;0.0214
1080;1.4345;-3.9345;0.0000;-0.0325;0.0150
1081;1.7464;-3.9345;0.0000;-0.0321;0.0103
1082;2.0583;-3.9345;0.0000;-0.0239;0.0097
1083;2.3702;-3.9344;0.0000;-0.0172;0.0074
1084;2.6820;-3.9343;0.0000;-0.0181;0.0101
1085;2.9929;-3.9349;0.0000;-0.0268;0.0201
1086;3.3013;-3.9372;0.0000;-0.0250;0.0231
1087;3.6056;-3.9424;0.0000;-0.0177;0.0148
1088;-4.3205;-4.2123;0.0000;0.0108;0.0662
1089;-4.0092;-4.2068;0.0000;0.0156;0.0715
1090;-3.7027;-4.2070;0.0000;0.0188;0.0805
1091;-3.3949;-4.2069;0.0000;-0.0072;0.0811
1092;-3.0854;-4.2066;0.0000;-0.0150;0.0831
1093;-2.7746;-4.2063;0.0000;-0.0132;0.0825
1094;-2.4631;-4.2060;0.0000;-0.0207;0.0742
1095;-2.1514;-4.2059;0.0000;-0.0229;0.0675
1096;-1.8396;-4.2057;0.0000;-0.0223;0.0688
1097;-1.5278;-4.2056;0.0000;-0.0287;0.0652
1098;-1.2159;-4.2055;0.0000;-0.0233;0.0541
1099;-0.9041;-4.2054;0.0000;-0.0304;0.0509
1100;-0.5923;-4.2053;0.0000;-0.0379;0.0459
1101;-0.2804;-4.2052;0.0000;-0.0164;0.0355
1102;0.0315;-4.2051;0.0000;-0.0114;0.0228
1103;0.3434;-4.2050;0.0000;-0.0161;0.0160
1104;0.6553;-4.2050;0.0000;-0.0204;0.0228
1105;0.9672;-4.2049;0.0000;-0.0278;0.0233
1106;1.2790;-4.2048;0.0000;-0.0313;0.0171
1107;1.5909;-4.2047;0.0000;-0.0360;0.0116
1108;1.9027;-4.2046;0.0000;-0.0273;0.0038
1109;2.2147;-4.2044;0.0000;-0.0215;0.0101
1110;2.5267;-4.2044;0.0000;-0.0198;0.0221
1111;2.8389;-4.2044;0.0000;-0.0206;0.0227
1112;3.1519;-4.2044;0.0000;-0.0316;0.0187
1113;3.4710;-4.1992;0.0000;-0.0294;0.0106
1114;-4.3923;-4.5003;0.0000;0.0059;0.0592
1115;-4.1335;-4.4817;0.0000;-0.0013;0.0670
1116;-3.8458;-4.4810;0.0000;0.0109;0.0716
1117;-3.5447;-4.4807;0.0000;0.0059;0.0681
1118;-3.2376;-4.4802;0.0000;-0.0107;0.0585
1119;-2.9277;-4.4797;0.0000;-0.0116;0.0545
1120;-2.6167;-4.4792;0.0000;-0.0129;0.0586
1121;-2.3051;-4.4788;0.0000;-0.0105;0.0642
1122;-1.9932;-4.4784;0.0000;-0.0182;0.0691
1123;-1.6814;-4.4781;0.0000;-0.0344;0.0668
1124;-1.3696;-4.4777;0.0000;-0.0230;0.0592
1125;-1.0577;-4.4774;0.0000;-0.0184;0.0513
1126;-0.7458;-4.4771;0.0000;-0.0402;0.0462
1127;-0.4340;-4.4767;0.0000;-0.0367;0.0379
1128;-0.1221;-4.4764;0.0000;-0.0098;0.0348
1129;0.1898;-4.4761;0.0000;-0.0156;0.0338
1130;0.5017;-4.4759;0.0000;-0.0193;0.0215
1131;0.8136;-4.4756;0.0000;-0.0184;0.0120
1132;1.1255;-4.4753;0.0000;-0.0193;0.0190
1133;1.4374;-4.4750;0.0000;-0.0333;0.0363
1134;1.7492;-4.4747;0.0000;-0.0415;0.0336
1135;2.0611;-4.4743;0.0000;-0.0202;0.0146
1136;2.3730;-4.4741;0.0000;-0.0169;0.0049
1137;2.6845;-4.4739;0.0000;-0.0240;0.0011
1138;2.9942;-4.4737;0.0000;-0.0236;-0.0026
1139;3.2986;-4.4717;0.0000;-0.0228;-0.0025
1140;3.5799;-4.4474;0.0000;-0.0408;-0.0073
1141;-4.2909;-4.7611;0.0000;-0.0011;0.0669
1142;-3.9912;-4.7598;0.0000;0.0075;0.0748
1143;-3.6892;-4.7576;0.0000;0.0185;0.0631
1144;-3.3828;-4.7562;0.0000;-0.0071;0.0476
1145;-3.0736;-4.7551;0.0000;-0.0137;0.0424
1146;-2.7629;-4.7542;0.0000;-0.0150;0.0517
1147;-2.4514;-4.7534;0.0000;-0.0111;0.0533
1148;-2.1396;-4.7527;0.0000;-0.0120;0.0482
1149;-1.8277;-4.7520;0.0000;-0.0253;0.0454
1150;-1.5158;-4.7513;0.0000;-0.0271;0.0403
1151;-1.2038;-4.7506;0.0000;-0.0111;0.0394
1152;-0.8919;-4.7499;0.0000;-0.0230;0.0385
1153;-0.5800;-4.7492;0.0000;-0.0379;0.0350
1154;-0.2681;-4.7485;0.0000;-0.0271;0.0357
1155;0.0439;-4.7479;0.0000;-0.0167;0.0368
1156;0.3558;-4.7472;0.0000;-0.0263;0.0149
1157;0.6677;-4.7466;0.0000;-0.0256;-0.0009
1158;0.9797;-4.7459;0.0000;-0.0108;0.0132
1159;1.2917;-4.7453;0.0000;-0.0149;0.0164
1160;1.6037;-4.7447;0.0000;-0.0389;0.0236
1161;1.9155;-4.7440;0.0000;-0.0296;0.0378
1162;2.2276;-4.7432;0.0000;-0.0099;0.0264
1163;2.5399;-4.7426;0.0000;-0.0313;0.0110
1164;2.8529;-4.7416;0.0000;-0.0334;0.0076
1165;3.1692;-4.7385;0.0000;-0.0112;0.0054
1166;3.4993;-4.7281;0.0000;-0.0360;0.0118
1167;-4.3934;-5.0172;0.0000;0.0061;0.0457
1168;-4.1137;-5.0378;0.0000;0.0053;0.0699
1169;-3.8167;-5.0357;0.0000;0.0187;0.0745
1170;-3.5119;-5.0336;0.0000;0.0032;0.0621
1171;-3.2033;-5.0318;0.0000;-0.0127;0.0511
1172;-2.8926;-5.0304;0.0000;-0.0162;0.0593
1173;-2.5812;-5.0291;0.0000;-0.0182;0.0633
1174;-2.2694;-5.0278;0.0000;-0.0176;0.0471
1175;-1.9574;-5.0266;0.0000;-0.0143;0.0332
1176;-1.6453;-5.0253;0.0000;-0.0206;0.0294
1177;-1.3333;-5.0242;0.0000;-0.0146;0.0345
1178;-1.0211;-5.0230;0.0000;-0.0103;0.0422
1179;-0.7090;-5.0218;0.0000;-0.0205;0.0394
1180;-0.3970;-5.0206;0.0000;-0.0288;0.0342
1181;-0.0849;-5.0195;0.0000;-0.0236;0.0333
1182;0.2272;-5.0183;0.0000;-0.0163;0.0361
1183;0.5392;-5.0171;0.0000;-0.0321;0.0294
1184;0.8513;-5.0160;0.0000;-0.0332;0.0274
1185;1.1633;-5.0149;0.0000;-0.0141;0.0337
1186;1.4754;-5.0137;0.0000;-0.0221;0.0230
1187;1.7875;-5.0127;0.0000;-0.0319;0.0232
1188;2.0995;-5.0115;0.0000;-0.0164;0.0407
1189;2.4115;-5.0103;0.0000;-0.0233;0.0332
1190;2.7227;-5.0090;0.0000;-0.0370;0.0194
1191;3.0310;-5.0070;0.0000;-0.0181;0.0278
1192;3.3285;-5.0018;0.0000;-0.0145;0.0346
1193;3.5882;-4.9979;0.0000;-0.0482;0.0347
