# Units: length:mm angle:deg time:s strain:% 
# Stage: image-000028
stage;index;relative_time;date
"image-000028";29;28.0000;"2022-09-26T12:01:18.387"
# Name : Surface_xy
id;x;y;z;epsilon_x;epsilon_y
0;-4.4990;5.7709;0.0000;-0.4249;0.7045
1;-4.1880;5.7709;0.0000;-0.4196;0.7106
2;-3.8770;5.7713;0.0000;-0.3950;0.8402
3;-3.5658;5.7714;0.0000;-0.3571;0.8747
4;-3.2546;5.7714;0.0000;-0.4071;0.8399
5;-2.9436;5.7716;0.0000;-0.4584;0.8481
6;-2.6329;5.7718;0.0000;-0.4401;0.8314
7;-2.3219;5.7719;0.0000;-0.4009;0.8200
8;-2.0107;5.7720;0.0000;-0.3849;0.8205
9;-1.6996;5.7720;0.0000;-0.3531;0.7848
10;-1.3883;5.7721;0.0000;-0.3570;0.8199
11;-1.0771;5.7721;0.0000;-0.3865;0.8824
12;-0.7661;5.7719;0.0000;-0.4172;0.9170
13;-0.4551;5.7720;0.0000;-0.4223;0.9201
14;-0.1441;5.7719;0.0000;-0.4056;0.8650
15;0.1671;5.7718;0.0000;-0.4006;0.8572
16;0.4782;5.7716;0.0000;-0.4164;0.8554
17;0.7892;5.7712;0.0000;-0.4285;0.8247
18;1.1003;5.7709;0.0000;-0.4224;0.8445
19;1.4112;5.7708;0.0000;-0.4457;0.8765
20;1.7221;5.7704;0.0000;-0.4163;0.7997
21;2.0331;5.7703;0.0000;-0.3818;0.7732
22;2.3442;5.7705;0.0000;-0.3708;0.8197
23;2.6555;5.7704;0.0000;-0.3776;0.8103
24;2.9665;5.7703;0.0000;-0.4216;0.7671
25;3.2775;5.7703;0.0000;-0.4418;0.7411
26;3.5884;5.7704;0.0000;-0.4475;0.7427
27;3.8363;5.6606;0.0000;-0.4268;0.7595
28;3.8349;5.3458;0.0000;-0.4639;0.7838
29;3.8334;5.0311;0.0000;-0.4501;0.7544
30;3.8319;4.7164;0.0000;-0.4370;0.7979
31;3.8304;4.4015;0.0000;-0.4692;0.8535
32;3.8292;4.0864;0.0000;-0.4893;0.8592
33;3.8280;3.7715;0.0000;-0.4603;0.8977
34;3.8268;3.4563;0.0000;-0.4133;0.8979
35;3.8258;3.1412;0.0000;-0.3920;0.8517
36;3.8248;2.8263;0.0000;-0.4065;0.8383
37;3.8237;2.5114;0.0000;-0.4603;0.8453
38;3.8227;2.1964;0.0000;-0.5061;0.9040
39;3.8218;1.8810;0.0000;-0.5015;1.0215
40;3.8210;1.5655;0.0000;-0.4907;0.9760
41;3.8203;1.2503;0.0000;-0.4307;0.8606
42;3.8194;0.9354;0.0000;-0.4841;0.8163
43;3.8186;0.6206;0.0000;-0.5306;0.7725
44;3.8181;0.3060;0.0000;-0.4620;0.8051
45;3.8173;-0.0090;0.0000;-0.4496;0.8865
46;3.8162;-0.3243;0.0000;-0.5174;0.8953
47;3.8155;-0.6393;0.0000;-0.4623;0.8885
48;3.8146;-0.9542;0.0000;-0.5028;0.9209
49;3.8137;-1.2696;0.0000;-0.5312;0.9979
50;3.8127;-1.5851;0.0000;-0.5588;0.9840
51;3.8119;-1.9006;0.0000;-0.4928;0.9518
52;3.8111;-2.2157;0.0000;-0.4434;0.8749
53;3.8103;-2.5305;0.0000;-0.4358;0.7436
54;3.8095;-2.8450;0.0000;-0.4217;0.6944
55;3.8087;-3.1595;0.0000;-0.3911;0.7084
56;3.8078;-3.4741;0.0000;-0.4071;0.7175
57;3.8068;-3.7886;0.0000;-0.4112;0.7153
58;3.8059;-4.1031;0.0000;-0.4006;0.7409
59;3.8051;-4.4179;0.0000;-0.4196;0.7980
60;3.8042;-4.7327;0.0000;-0.4607;0.7989
61;3.8033;-5.0475;0.0000;-0.4852;0.7884
62;3.8026;-5.3622;0.0000;-0.5068;0.7724
63;3.5385;-5.4352;0.0000;-0.4632;0.7673
64;3.2275;-5.4373;0.0000;-0.4209;0.8197
65;2.9165;-5.4392;0.0000;-0.4338;0.7974
66;2.6055;-5.4410;0.0000;-0.4240;0.7582
67;2.2945;-5.4428;0.0000;-0.3749;0.7545
68;1.9833;-5.4446;0.0000;-0.3738;0.7594
69;1.6721;-5.4462;0.0000;-0.3520;0.7359
70;1.3609;-5.4480;0.0000;-0.3149;0.7549
71;1.0495;-5.4497;0.0000;-0.3427;0.7333
72;0.7383;-5.4513;0.0000;-0.3883;0.7566
73;0.4273;-5.4531;0.0000;-0.3891;0.8250
74;0.1162;-5.4547;0.0000;-0.3856;0.7721
75;-0.1949;-5.4562;0.0000;-0.3948;0.7311
76;-0.5060;-5.4580;0.0000;-0.4106;0.7509
77;-0.8170;-5.4597;0.0000;-0.4185;0.7450
78;-1.1280;-5.4611;0.0000;-0.4050;0.6977
79;-1.4391;-5.4627;0.0000;-0.4118;0.7055
80;-1.7501;-5.4642;0.0000;-0.3778;0.7001
81;-2.0614;-5.4658;0.0000;-0.3521;0.6925
82;-2.3726;-5.4675;0.0000;-0.3870;0.7410
83;-2.6836;-5.4692;0.0000;-0.4395;0.7764
84;-2.9944;-5.4705;0.0000;-0.4170;0.7414
85;-3.3056;-5.4721;0.0000;-0.3637;0.7417
86;-3.6168;-5.4736;0.0000;-0.3408;0.7322
87;-3.9281;-5.4750;0.0000;-0.3550;0.7096
88;-4.2392;-5.4765;0.0000;-0.3937;0.6998
89;-4.5490;-5.4542;0.0000;-0.4352;0.6871
90;-4.5990;-5.1851;0.0000;-0.4318;0.6646
91;-4.5990;-4.8707;0.0000;-0.3594;0.6908
92;-4.5988;-4.5562;0.0000;-0.3536;0.7057
93;-4.5987;-4.2417;0.0000;-0.3940;0.7304
94;-4.5989;-3.9270;0.0000;-0.4549;0.8542
95;-4.5993;-3.6117;0.0000;-0.4268;0.9484
96;-4.5994;-3.2965;0.0000;-0.4133;0.8821
97;-4.5996;-2.9817;0.0000;-0.3959;0.7840
98;-4.5997;-2.6670;0.0000;-0.4183;0.7780
99;-4.5999;-2.3520;0.0000;-0.5095;0.9245
100;-4.6002;-2.0366;0.0000;-0.4924;0.9996
101;-4.6004;-1.7213;0.0000;-0.4433;0.9479
102;-4.6004;-1.4060;0.0000;-0.4700;0.9690
103;-4.6005;-1.0906;0.0000;-0.5263;0.8794
104;-4.6007;-0.7759;0.0000;-0.5000;0.7016
105;-4.6009;-0.4615;0.0000;-0.4817;0.6801
106;-4.6011;-0.1469;0.0000;-0.4782;0.8000
107;-4.6012;0.1681;0.0000;-0.5158;0.8913
108;-4.6013;0.4833;0.0000;-0.5507;0.8733
109;-4.6015;0.7983;0.0000;-0.5290;0.8794
110;-4.6016;1.1134;0.0000;-0.5039;0.9372
111;-4.6016;1.4287;0.0000;-0.5200;0.9498
112;-4.6018;1.7440;0.0000;-0.5013;0.9808
113;-4.6019;2.0595;0.0000;-0.5300;0.9708
114;-4.6019;2.3747;0.0000;-0.5165;0.8577
115;-4.6019;2.6894;0.0000;-0.4657;0.8262
116;-4.6017;3.0046;0.0000;-0.4822;1.0098
117;-4.6018;3.3203;0.0000;-0.5109;1.1016
118;-4.6024;3.6359;0.0000;-0.4649;1.0490
119;-4.6027;3.9515;0.0000;-0.5321;1.0224
120;-4.6031;4.2669;0.0000;-0.5754;0.9105
121;-4.6037;4.5819;0.0000;-0.5284;0.8802
122;-4.6043;4.8970;0.0000;-0.4985;0.9647
123;-4.6049;5.2125;0.0000;-0.5264;0.9362
124;-4.6055;5.5275;0.0000;-0.4582;0.8109
125;-4.3083;5.4926;0.0000;-0.4367;0.7877
126;-4.0071;5.4884;0.0000;-0.4240;0.8277
127;-3.7024;5.4857;0.0000;-0.3854;0.8866
128;-3.3945;5.4848;0.0000;-0.3881;0.8982
129;-3.0850;5.4845;0.0000;-0.4314;0.8876
130;-2.7748;5.4845;0.0000;-0.4345;0.8636
131;-2.4641;5.4846;0.0000;-0.4030;0.8389
132;-2.1534;5.4845;0.0000;-0.3978;0.8336
133;-1.8425;5.4846;0.0000;-0.3879;0.8285
134;-1.5315;5.4846;0.0000;-0.3656;0.8510
135;-1.2206;5.4844;0.0000;-0.3814;0.8991
136;-0.9096;5.4841;0.0000;-0.4047;0.9232
137;-0.5988;5.4838;0.0000;-0.4193;0.9399
138;-0.2881;5.4839;0.0000;-0.4267;0.9407
139;0.0227;5.4839;0.0000;-0.4440;0.9295
140;0.3334;5.4836;0.0000;-0.4500;0.9196
141;0.6442;5.4833;0.0000;-0.4493;0.8752
142;0.9548;5.4829;0.0000;-0.4288;0.8266
143;1.2656;5.4824;0.0000;-0.4245;0.8348
144;1.5764;5.4822;0.0000;-0.4163;0.8253
145;1.8873;5.4821;0.0000;-0.3791;0.7727
146;2.1982;5.4820;0.0000;-0.3716;0.7783
147;2.5081;5.4821;0.0000;-0.3724;0.8070
148;2.8150;5.4824;0.0000;-0.4119;0.7906
149;3.1134;5.4834;0.0000;-0.4342;0.7676
150;3.3930;5.4857;0.0000;-0.4339;0.7637
151;3.6343;5.4776;0.0000;-0.4440;0.7663
152;-4.4044;5.2083;0.0000;-0.4774;0.9359
153;-4.1316;5.2066;0.0000;-0.4481;0.9212
154;-3.8401;5.2019;0.0000;-0.4234;0.9201
155;-3.5383;5.2002;0.0000;-0.4042;0.9328
156;-3.2313;5.1997;0.0000;-0.4161;0.9274
157;-2.9222;5.1996;0.0000;-0.4077;0.9202
158;-2.6120;5.1998;0.0000;-0.3882;0.9133
159;-2.3013;5.1998;0.0000;-0.3810;0.9041
160;-1.9906;5.1998;0.0000;-0.4203;0.9277
161;-1.6800;5.1997;0.0000;-0.4247;0.9633
162;-1.3693;5.1993;0.0000;-0.4076;0.9889
163;-1.0585;5.1989;0.0000;-0.4011;0.9823
164;-0.7478;5.1986;0.0000;-0.4050;0.9490
165;-0.4370;5.1984;0.0000;-0.4153;0.9600
166;-0.1263;5.1983;0.0000;-0.4668;0.9933
167;0.1840;5.1981;0.0000;-0.5279;0.9811
168;0.4943;5.1978;0.0000;-0.4969;0.9373
169;0.8049;5.1977;0.0000;-0.4453;0.8859
170;1.1156;5.1974;0.0000;-0.4066;0.8385
171;1.4263;5.1969;0.0000;-0.4080;0.8098
172;1.7370;5.1968;0.0000;-0.4044;0.7787
173;2.0478;5.1968;0.0000;-0.3788;0.7463
174;2.3581;5.1965;0.0000;-0.3739;0.7441
175;2.6669;5.1963;0.0000;-0.3920;0.7569
176;2.9710;5.1966;0.0000;-0.4303;0.7576
177;3.2675;5.1969;0.0000;-0.4179;0.7531
178;3.5583;5.1985;0.0000;-0.4324;0.7612
179;-4.2857;4.9316;0.0000;-0.4929;0.9714
180;-3.9875;4.9216;0.0000;-0.4541;0.9561
181;-3.6869;4.9187;0.0000;-0.4242;0.9275
182;-3.3817;4.9181;0.0000;-0.4179;0.8976
183;-3.0736;4.9181;0.0000;-0.3963;0.9031
184;-2.7638;4.9182;0.0000;-0.3735;0.9579
185;-2.4535;4.9183;0.0000;-0.3764;1.0107
186;-2.1429;4.9181;0.0000;-0.4177;1.0511
187;-1.8324;4.9179;0.0000;-0.4777;1.0794
188;-1.5220;4.9176;0.0000;-0.4539;1.0575
189;-1.2114;4.9171;0.0000;-0.3990;1.0008
190;-0.9006;4.9169;0.0000;-0.3983;0.9535
191;-0.5899;4.9167;0.0000;-0.4357;0.9154
192;-0.2794;4.9165;0.0000;-0.4655;0.9256
193;0.0311;4.9162;0.0000;-0.5112;0.9480
194;0.3413;4.9161;0.0000;-0.5342;0.9131
195;0.6516;4.9159;0.0000;-0.4755;0.8924
196;0.9622;4.9157;0.0000;-0.4187;0.8986
197;1.2730;4.9154;0.0000;-0.3982;0.8654
198;1.5837;4.9151;0.0000;-0.4185;0.8220
199;1.8943;4.9152;0.0000;-0.4086;0.7940
200;2.2048;4.9151;0.0000;-0.3849;0.7518
201;2.5142;4.9148;0.0000;-0.4031;0.7323
202;2.8197;4.9145;0.0000;-0.4282;0.7556
203;3.1155;4.9146;0.0000;-0.4297;0.7611
204;3.3923;4.9121;0.0000;-0.4212;0.7515
205;3.6307;4.9125;0.0000;-0.4294;0.7516
206;-4.3781;4.6710;0.0000;-0.5143;0.9028
207;-4.1200;4.6447;0.0000;-0.4940;0.9252
208;-3.8327;4.6400;0.0000;-0.4519;0.9223
209;-3.5325;4.6396;0.0000;-0.4376;0.8875
210;-3.2265;4.6398;0.0000;-0.4254;0.8896
211;-2.9178;4.6398;0.0000;-0.3847;0.9340
212;-2.6077;4.6396;0.0000;-0.3773;0.9973
213;-2.2972;4.6394;0.0000;-0.3945;1.0390
214;-1.9867;4.6391;0.0000;-0.4529;1.0503
215;-1.6763;4.6389;0.0000;-0.4810;1.0563
216;-1.3658;4.6387;0.0000;-0.4335;1.0171
217;-1.0551;4.6386;0.0000;-0.4014;0.9643
218;-0.7445;4.6384;0.0000;-0.4534;0.9452
219;-0.4341;4.6383;0.0000;-0.4901;0.9234
220;-0.1237;4.6379;0.0000;-0.4723;0.9058
221;0.1868;4.6376;0.0000;-0.4904;0.9055
222;0.4972;4.6376;0.0000;-0.4887;0.9007
223;0.8077;4.6373;0.0000;-0.4634;0.8901
224;1.1182;4.6370;0.0000;-0.4362;0.8920
225;1.4288;4.6367;0.0000;-0.4226;0.8778
226;1.7394;4.6367;0.0000;-0.4341;0.8485
227;2.0499;4.6368;0.0000;-0.4006;0.8285
228;2.3600;4.6366;0.0000;-0.4100;0.8116
229;2.6679;4.6362;0.0000;-0.4317;0.8007
230;2.9705;4.6360;0.0000;-0.4219;0.7981
231;3.2649;4.6359;0.0000;-0.4294;0.8056
232;3.5561;4.6242;0.0000;-0.4511;0.8164
233;-4.3028;4.3784;0.0000;-0.5234;0.8958
234;-3.9926;4.3649;0.0000;-0.4802;0.9041
235;-3.6872;4.3635;0.0000;-0.4672;0.8982
236;-3.3807;4.3637;0.0000;-0.4596;0.9008
237;-3.0724;4.3639;0.0000;-0.4341;0.9117
238;-2.7627;4.3637;0.0000;-0.4072;0.9246
239;-2.4525;4.3634;0.0000;-0.4072;0.9338
240;-2.1419;4.3632;0.0000;-0.4131;0.9348
241;-1.8314;4.3628;0.0000;-0.4538;0.9557
242;-1.5209;4.3625;0.0000;-0.4689;0.9885
243;-1.2104;4.3624;0.0000;-0.4221;0.9927
244;-0.8997;4.3623;0.0000;-0.4417;0.9797
245;-0.5893;4.3622;0.0000;-0.4835;0.9642
246;-0.2789;4.3620;0.0000;-0.4697;0.9297
247;0.0317;4.3618;0.0000;-0.4542;0.9000
248;0.3422;4.3616;0.0000;-0.4798;0.9149
249;0.6526;4.3614;0.0000;-0.4909;0.9170
250;0.9630;4.3612;0.0000;-0.4896;0.8815
251;1.2734;4.3608;0.0000;-0.4492;0.8700
252;1.5840;4.3607;0.0000;-0.4285;0.8605
253;1.8946;4.3608;0.0000;-0.4239;0.8387
254;2.2049;4.3607;0.0000;-0.4074;0.8380
255;2.5137;4.3604;0.0000;-0.4286;0.8342
256;2.8178;4.3600;0.0000;-0.4137;0.8203
257;3.1102;4.3603;0.0000;-0.4066;0.8179
258;3.3809;4.3602;0.0000;-0.4472;0.8299
259;3.6196;4.3300;0.0000;-0.4861;0.8520
260;-4.3872;4.0933;0.0000;-0.5302;0.9741
261;-4.1284;4.0922;0.0000;-0.4751;0.9565
262;-3.8358;4.0896;0.0000;-0.4703;0.9460
263;-3.5332;4.0894;0.0000;-0.4711;0.9526
264;-3.2263;4.0896;0.0000;-0.4667;0.9598
265;-2.9174;4.0895;0.0000;-0.4621;0.9552
266;-2.6076;4.0892;0.0000;-0.4605;0.9266
267;-2.2973;4.0890;0.0000;-0.4322;0.9204
268;-1.9868;4.0886;0.0000;-0.4266;0.9420
269;-1.6763;4.0882;0.0000;-0.4718;0.9449
270;-1.3659;4.0879;0.0000;-0.4582;0.9454
271;-1.0553;4.0878;0.0000;-0.4264;0.9615
272;-0.7447;4.0877;0.0000;-0.4513;0.9610
273;-0.4342;4.0876;0.0000;-0.4546;0.9391
274;-0.1236;4.0875;0.0000;-0.4495;0.9305
275;0.1869;4.0872;0.0000;-0.4783;0.9325
276;0.4972;4.0870;0.0000;-0.5037;0.9248
277;0.8076;4.0869;0.0000;-0.5032;0.9109
278;1.1180;4.0867;0.0000;-0.4851;0.8714
279;1.4284;4.0863;0.0000;-0.4471;0.8253
280;1.7390;4.0865;0.0000;-0.4304;0.8111
281;2.0495;4.0866;0.0000;-0.4163;0.8173
282;2.3593;4.0862;0.0000;-0.4181;0.8326
283;2.6661;4.0856;0.0000;-0.4179;0.8451
284;2.9655;4.0846;0.0000;-0.4008;0.8490
285;3.2513;4.0847;0.0000;-0.4076;0.8488
286;3.5248;4.0864;0.0000;-0.4643;0.8512
287;-4.3050;3.8123;0.0000;-0.4864;1.0369
288;-3.9937;3.8170;0.0000;-0.4643;1.0123
289;-3.6874;3.8161;0.0000;-0.4833;1.0093
290;-3.3805;3.8159;0.0000;-0.4755;1.0484
291;-3.0720;3.8158;0.0000;-0.4799;1.0703
292;-2.7626;3.8157;0.0000;-0.5103;1.0452
293;-2.4527;3.8155;0.0000;-0.4940;1.0055
294;-2.1424;3.8152;0.0000;-0.4390;0.9872
295;-1.8318;3.8147;0.0000;-0.4371;0.9725
296;-1.5213;3.8144;0.0000;-0.4655;0.9346
297;-1.2108;3.8143;0.0000;-0.4406;0.9242
298;-0.9002;3.8140;0.0000;-0.4269;0.9498
299;-0.5896;3.8140;0.0000;-0.4396;0.9755
300;-0.2790;3.8140;0.0000;-0.4547;0.9880
301;0.0315;3.8137;0.0000;-0.4755;0.9797
302;0.3419;3.8135;0.0000;-0.5009;0.9560
303;0.6522;3.8134;0.0000;-0.5017;0.9332
304;0.9627;3.8132;0.0000;-0.4852;0.9141
305;1.2731;3.8131;0.0000;-0.4758;0.8648
306;1.5835;3.8132;0.0000;-0.4599;0.8328
307;1.8940;3.8133;0.0000;-0.4327;0.8552
308;2.2042;3.8131;0.0000;-0.4295;0.8887
309;2.5129;3.8123;0.0000;-0.4193;0.9042
310;2.8166;3.8109;0.0000;-0.4054;0.8873
311;3.1081;3.8093;0.0000;-0.4118;0.8817
312;3.3781;3.8117;0.0000;-0.4149;0.9004
313;3.6177;3.8462;0.0000;-0.4732;0.8931
314;-4.3788;3.5258;0.0000;-0.4822;1.0868
315;-4.1204;3.5426;0.0000;-0.4798;1.0947
316;-3.8323;3.5433;0.0000;-0.5006;1.0774
317;-3.5318;3.5427;0.0000;-0.5046;1.0824
318;-3.2258;3.5423;0.0000;-0.4889;1.0944
319;-2.9172;3.5422;0.0000;-0.4981;1.0796
320;-2.6077;3.5421;0.0000;-0.5191;1.0709
321;-2.2976;3.5420;0.0000;-0.4765;1.0589
322;-1.9872;3.5417;0.0000;-0.4469;1.0141
323;-1.6766;3.5414;0.0000;-0.4614;0.9527
324;-1.3662;3.5413;0.0000;-0.4615;0.9227
325;-1.0556;3.5411;0.0000;-0.4231;0.9177
326;-0.7449;3.5408;0.0000;-0.4199;0.9325
327;-0.4344;3.5407;0.0000;-0.4526;0.9780
328;-0.1239;3.5405;0.0000;-0.4713;0.9890
329;0.1865;3.5403;0.0000;-0.4852;0.9634
330;0.4969;3.5402;0.0000;-0.5072;0.9543
331;0.8072;3.5402;0.0000;-0.4900;0.9562
332;1.1178;3.5402;0.0000;-0.4642;0.9373
333;1.4283;3.5402;0.0000;-0.4794;0.9347
334;1.7386;3.5402;0.0000;-0.4689;0.9757
335;2.0490;3.5401;0.0000;-0.4508;1.0133
336;2.3587;3.5395;0.0000;-0.4533;1.0188
337;2.6662;3.5384;0.0000;-0.4183;0.9917
338;2.9683;3.5367;0.0000;-0.4096;0.9571
339;3.2619;3.5370;0.0000;-0.4141;0.9374
340;3.5521;3.5550;0.0000;-0.4159;0.9242
341;-4.2841;3.2641;0.0000;-0.4955;1.1333
342;-3.9845;3.2686;0.0000;-0.5087;1.1397
343;-3.6841;3.2691;0.0000;-0.5367;1.1313
344;-3.3794;3.2690;0.0000;-0.5280;1.1059
345;-3.0719;3.2690;0.0000;-0.4937;1.0856
346;-2.7625;3.2690;0.0000;-0.4771;1.0864
347;-2.4526;3.2688;0.0000;-0.4806;1.1012
348;-2.1423;3.2686;0.0000;-0.4796;1.0905
349;-1.8320;3.2685;0.0000;-0.4833;1.0454
350;-1.5216;3.2685;0.0000;-0.4757;1.0131
351;-1.2111;3.2684;0.0000;-0.4445;0.9884
352;-0.9005;3.2682;0.0000;-0.4154;0.9524
353;-0.5898;3.2679;0.0000;-0.4317;0.9334
354;-0.2793;3.2676;0.0000;-0.4503;0.9358
355;0.0312;3.2675;0.0000;-0.4607;0.9449
356;0.3417;3.2674;0.0000;-0.4909;0.9581
357;0.6521;3.2673;0.0000;-0.5097;0.9622
358;0.9624;3.2671;0.0000;-0.4866;0.9579
359;1.2729;3.2672;0.0000;-0.4687;0.9745
360;1.5833;3.2671;0.0000;-0.4997;1.0336
361;1.8936;3.2669;0.0000;-0.4821;1.0844
362;2.2037;3.2665;0.0000;-0.4718;1.0660
363;2.5126;3.2658;0.0000;-0.4473;1.0295
364;2.8177;3.2647;0.0000;-0.4024;1.0072
365;3.1137;3.2638;0.0000;-0.3946;0.9682
366;3.3911;3.2684;0.0000;-0.3901;0.9130
367;3.6292;3.2733;0.0000;-0.3886;0.8816
368;-4.4048;3.0007;0.0000;-0.4819;1.0171
369;-4.1248;2.9964;0.0000;-0.5012;1.0451
370;-3.8325;2.9955;0.0000;-0.5243;1.0744
371;-3.5317;2.9956;0.0000;-0.5239;1.0749
372;-3.2258;2.9957;0.0000;-0.5228;1.0599
373;-2.9175;2.9957;0.0000;-0.4827;1.0808
374;-2.6078;2.9956;0.0000;-0.4540;1.1071
375;-2.2975;2.9954;0.0000;-0.4650;1.0953
376;-1.9872;2.9953;0.0000;-0.4838;1.0794
377;-1.6769;2.9953;0.0000;-0.4840;1.0997
378;-1.3664;2.9953;0.0000;-0.4597;1.1001
379;-1.0559;2.9953;0.0000;-0.4503;1.0476
380;-0.7453;2.9952;0.0000;-0.4423;0.9888
381;-0.4348;2.9950;0.0000;-0.4402;0.9329
382;-0.1242;2.9948;0.0000;-0.4345;0.9070
383;0.1864;2.9946;0.0000;-0.4500;0.9239
384;0.4969;2.9944;0.0000;-0.4901;0.9381
385;0.8072;2.9944;0.0000;-0.5038;0.9175
386;1.1177;2.9944;0.0000;-0.4860;0.9161
387;1.4281;2.9942;0.0000;-0.5028;0.9621
388;1.7383;2.9938;0.0000;-0.5203;0.9969
389;2.0486;2.9936;0.0000;-0.4768;0.9894
390;2.3584;2.9934;0.0000;-0.4480;0.9458
391;2.6663;2.9926;0.0000;-0.4237;0.9031
392;2.9699;2.9921;0.0000;-0.3847;0.8834
393;3.2665;2.9923;0.0000;-0.3856;0.8640
394;3.5570;2.9941;0.0000;-0.3945;0.8461
395;-4.2839;2.7328;0.0000;-0.4780;0.8418
396;-3.9845;2.7235;0.0000;-0.4950;0.8836
397;-3.6841;2.7224;0.0000;-0.5134;0.9337
398;-3.3795;2.7227;0.0000;-0.5090;0.9532
399;-3.0720;2.7228;0.0000;-0.4969;0.9657
400;-2.7628;2.7226;0.0000;-0.4561;0.9954
401;-2.4527;2.7224;0.0000;-0.4527;0.9987
402;-2.1425;2.7223;0.0000;-0.4710;0.9636
403;-1.8321;2.7223;0.0000;-0.4666;0.9458
404;-1.5216;2.7221;0.0000;-0.4566;0.9586
405;-1.2111;2.7221;0.0000;-0.4647;0.9529
406;-0.9007;2.7223;0.0000;-0.4706;0.9137
407;-0.5902;2.7223;0.0000;-0.4569;0.8756
408;-0.2796;2.7223;0.0000;-0.4442;0.8595
409;0.0309;2.7221;0.0000;-0.4257;0.8664
410;0.3416;2.7219;0.0000;-0.4442;0.8853
411;0.6521;2.7218;0.0000;-0.5027;0.9056
412;0.9624;2.7219;0.0000;-0.5177;0.9119
413;1.2727;2.7217;0.0000;-0.5045;0.9023
414;1.5830;2.7214;0.0000;-0.5184;0.8770
415;1.8933;2.7211;0.0000;-0.4851;0.8504
416;2.2035;2.7209;0.0000;-0.4302;0.8279
417;2.5126;2.7207;0.0000;-0.4216;0.7901
418;2.8175;2.7204;0.0000;-0.4054;0.7683
419;3.1129;2.7205;0.0000;-0.3863;0.7760
420;3.3889;2.7171;0.0000;-0.3988;0.8019
421;3.6246;2.7123;0.0000;-0.4221;0.8279
422;-4.3780;2.4758;0.0000;-0.4876;0.7828
423;-4.1199;2.4528;0.0000;-0.4824;0.7983
424;-3.8320;2.4495;0.0000;-0.4943;0.8232
425;-3.5319;2.4497;0.0000;-0.4980;0.8672
426;-3.2262;2.4500;0.0000;-0.4934;0.8878
427;-2.9178;2.4500;0.0000;-0.4721;0.8673
428;-2.6081;2.4498;0.0000;-0.4474;0.8430
429;-2.2978;2.4498;0.0000;-0.4560;0.8248
430;-1.9874;2.4499;0.0000;-0.4461;0.8001
431;-1.6769;2.4498;0.0000;-0.4334;0.7857
432;-1.3663;2.4497;0.0000;-0.4375;0.7910
433;-1.0558;2.4498;0.0000;-0.4581;0.8003
434;-0.7453;2.4500;0.0000;-0.4694;0.8156
435;-0.4349;2.4500;0.0000;-0.4708;0.8389
436;-0.1244;2.4498;0.0000;-0.4579;0.8626
437;0.1862;2.4495;0.0000;-0.4364;0.8888
438;0.4968;2.4493;0.0000;-0.4744;0.9081
439;0.8071;2.4491;0.0000;-0.5159;0.9228
440;1.1175;2.4491;0.0000;-0.5074;0.9154
441;1.4278;2.4490;0.0000;-0.5021;0.8626
442;1.7381;2.4488;0.0000;-0.4885;0.8063
443;2.0485;2.4487;0.0000;-0.4306;0.7788
444;2.3584;2.4487;0.0000;-0.4052;0.7567
445;2.6659;2.4485;0.0000;-0.4083;0.7459
446;2.9675;2.4485;0.0000;-0.4061;0.7603
447;3.2598;2.4479;0.0000;-0.4219;0.7810
448;3.5487;2.4314;0.0000;-0.4477;0.8240
449;-4.3033;2.1884;0.0000;-0.5113;0.9037
450;-3.9930;2.1780;0.0000;-0.4916;0.8720
451;-3.6875;2.1772;0.0000;-0.4771;0.8699
452;-3.3810;2.1774;0.0000;-0.4684;0.8728
453;-3.0727;2.1776;0.0000;-0.4749;0.8514
454;-2.7633;2.1776;0.0000;-0.4635;0.8190
455;-2.4532;2.1776;0.0000;-0.4508;0.8136
456;-2.1429;2.1776;0.0000;-0.4410;0.8313
457;-1.8323;2.1777;0.0000;-0.4143;0.8528
458;-1.5217;2.1775;0.0000;-0.4220;0.8739
459;-1.2111;2.1775;0.0000;-0.4303;0.8922
460;-0.9004;2.1776;0.0000;-0.4384;0.9344
461;-0.5899;2.1775;0.0000;-0.4739;0.9868
462;-0.2795;2.1774;0.0000;-0.4962;0.9941
463;0.0308;2.1771;0.0000;-0.4821;0.9719
464;0.3414;2.1767;0.0000;-0.4634;0.9531
465;0.6518;2.1765;0.0000;-0.4882;0.9329
466;0.9622;2.1765;0.0000;-0.4960;0.9141
467;1.2726;2.1766;0.0000;-0.4765;0.8854
468;1.5831;2.1766;0.0000;-0.4675;0.8539
469;1.8935;2.1765;0.0000;-0.4398;0.8437
470;2.2037;2.1764;0.0000;-0.3970;0.8588
471;2.5125;2.1764;0.0000;-0.4015;0.8832
472;2.8161;2.1761;0.0000;-0.4155;0.8946
473;3.1071;2.1759;0.0000;-0.4425;0.9070
474;3.3757;2.1755;0.0000;-0.4599;0.9206
475;3.6143;2.1390;0.0000;-0.4808;0.9343
476;-4.3876;1.9105;0.0000;-0.5137;0.9874
477;-4.1284;1.9059;0.0000;-0.5106;0.9608
478;-3.8362;1.9053;0.0000;-0.4869;0.9316
479;-3.5338;1.9050;0.0000;-0.4534;0.9116
480;-3.2269;1.9052;0.0000;-0.4608;0.9109
481;-2.9182;1.9053;0.0000;-0.4716;0.9193
482;-2.6084;1.9052;0.0000;-0.4607;0.9434
483;-2.2981;1.9050;0.0000;-0.4449;0.9755
484;-1.9877;1.9050;0.0000;-0.4171;1.0025
485;-1.6770;1.9048;0.0000;-0.4152;1.0293
486;-1.3665;1.9047;0.0000;-0.4469;1.0567
487;-1.0559;1.9047;0.0000;-0.4381;1.0857
488;-0.7453;1.9045;0.0000;-0.4314;1.0980
489;-0.4348;1.9043;0.0000;-0.4758;1.1036
490;-0.1244;1.9042;0.0000;-0.5065;1.0688
491;0.1859;1.9040;0.0000;-0.4928;0.9860
492;0.4964;1.9039;0.0000;-0.4618;0.9258
493;0.8069;1.9038;0.0000;-0.4657;0.9133
494;1.1173;1.9039;0.0000;-0.4656;0.9245
495;1.4279;1.9041;0.0000;-0.4326;0.9274
496;1.7385;1.9040;0.0000;-0.4232;0.9431
497;2.0490;1.9039;0.0000;-0.4070;0.9827
498;2.3587;1.9036;0.0000;-0.4110;1.0321
499;2.6655;1.9030;0.0000;-0.4328;1.0771
500;2.9644;1.9019;0.0000;-0.4440;1.0754
501;3.2490;1.9013;0.0000;-0.4587;1.0557
502;3.5187;1.9052;0.0000;-0.4820;1.0468
503;-4.3036;1.6245;0.0000;-0.5097;0.9722
504;-3.9933;1.6327;0.0000;-0.5053;0.9741
505;-3.6878;1.6329;0.0000;-0.4802;0.9669
506;-3.3813;1.6326;0.0000;-0.4700;0.9640
507;-3.0730;1.6325;0.0000;-0.4727;0.9735
508;-2.7636;1.6324;0.0000;-0.4712;0.9990
509;-2.4536;1.6321;0.0000;-0.4618;1.0395
510;-2.1432;1.6320;0.0000;-0.4193;1.0715
511;-1.8325;1.6319;0.0000;-0.3977;1.0728
512;-1.5219;1.6316;0.0000;-0.4422;1.0709
513;-1.2114;1.6314;0.0000;-0.4820;1.0859
514;-0.9011;1.6314;0.0000;-0.4415;1.0821
515;-0.5904;1.6313;0.0000;-0.4166;1.0558
516;-0.2798;1.6311;0.0000;-0.4510;1.0273
517;0.0307;1.6312;0.0000;-0.4807;0.9717
518;0.3411;1.6313;0.0000;-0.4780;0.9010
519;0.6516;1.6313;0.0000;-0.4515;0.8797
520;0.9622;1.6313;0.0000;-0.4429;0.9088
521;1.2727;1.6312;0.0000;-0.4237;0.9418
522;1.5834;1.6313;0.0000;-0.4163;0.9624
523;1.8940;1.6310;0.0000;-0.4304;0.9953
524;2.2041;1.6307;0.0000;-0.4240;1.0391
525;2.5127;1.6300;0.0000;-0.4333;1.0713
526;2.8164;1.6286;0.0000;-0.4454;1.0912
527;3.1084;1.6270;0.0000;-0.4451;1.0887
528;3.3803;1.6291;0.0000;-0.4633;1.0559
529;3.6213;1.6780;0.0000;-0.4898;1.0330
530;-4.3771;1.3336;0.0000;-0.5077;0.9719
531;-4.1201;1.3573;0.0000;-0.5064;0.9833
532;-3.8326;1.3601;0.0000;-0.4987;0.9636
533;-3.5327;1.3599;0.0000;-0.4939;0.9402
534;-3.2269;1.3598;0.0000;-0.4799;0.9438
535;-2.9184;1.3597;0.0000;-0.4616;0.9603
536;-2.6088;1.3594;0.0000;-0.4815;0.9713
537;-2.2987;1.3590;0.0000;-0.4471;0.9990
538;-1.9881;1.3589;0.0000;-0.3991;1.0250
539;-1.6775;1.3588;0.0000;-0.4258;1.0011
540;-1.3669;1.3585;0.0000;-0.4607;0.9616
541;-1.0565;1.3585;0.0000;-0.4682;0.9504
542;-0.7460;1.3584;0.0000;-0.4136;0.9362
543;-0.4352;1.3584;0.0000;-0.4054;0.9045
544;-0.1246;1.3584;0.0000;-0.4207;0.8875
545;0.1861;1.3587;0.0000;-0.4407;0.8702
546;0.4966;1.3588;0.0000;-0.4614;0.8526
547;0.8071;1.3588;0.0000;-0.4508;0.8469
548;1.1177;1.3586;0.0000;-0.4205;0.8601
549;1.4283;1.3586;0.0000;-0.4277;0.8941
550;1.7388;1.3584;0.0000;-0.4524;0.8951
551;2.0492;1.3580;0.0000;-0.4373;0.8819
552;2.3590;1.3575;0.0000;-0.4281;0.8951
553;2.6666;1.3563;0.0000;-0.4308;0.9027
554;2.9687;1.3543;0.0000;-0.4424;0.9286
555;3.2624;1.3551;0.0000;-0.4552;0.9398
556;3.5530;1.3736;0.0000;-0.4741;0.9175
557;-4.2841;1.0752;0.0000;-0.5073;0.9480
558;-3.9853;1.0852;0.0000;-0.5025;0.9308
559;-3.6851;1.0869;0.0000;-0.4909;0.8713
560;-3.3806;1.0871;0.0000;-0.4903;0.8366
561;-3.0731;1.0870;0.0000;-0.4607;0.8586
562;-2.7638;1.0869;0.0000;-0.4693;0.8839
563;-2.4539;1.0865;0.0000;-0.4794;0.9014
564;-2.1436;1.0862;0.0000;-0.4146;0.9330
565;-1.8329;1.0860;0.0000;-0.4134;0.9384
566;-1.5224;1.0860;0.0000;-0.4441;0.8982
567;-1.2118;1.0860;0.0000;-0.4370;0.8386
568;-0.9012;1.0860;0.0000;-0.4168;0.7951
569;-0.5906;1.0860;0.0000;-0.4029;0.7692
570;-0.2799;1.0860;0.0000;-0.4145;0.7534
571;0.0307;1.0862;0.0000;-0.4216;0.7735
572;0.3414;1.0864;0.0000;-0.4356;0.8045
573;0.6519;1.0864;0.0000;-0.4554;0.8122
574;0.9624;1.0864;0.0000;-0.4334;0.8075
575;1.2731;1.0862;0.0000;-0.4247;0.8204
576;1.5836;1.0861;0.0000;-0.4520;0.8254
577;1.8940;1.0859;0.0000;-0.4457;0.7963
578;2.2043;1.0855;0.0000;-0.4286;0.7693
579;2.5135;1.0846;0.0000;-0.4201;0.7581
580;2.8190;1.0826;0.0000;-0.4179;0.7745
581;3.1148;1.0802;0.0000;-0.4307;0.7997
582;3.3897;1.0863;0.0000;-0.4819;0.8165
583;3.6268;1.0982;0.0000;-0.4780;0.8270
584;-4.4053;0.8057;0.0000;-0.5163;0.8653
585;-4.1255;0.8120;0.0000;-0.5158;0.8480
586;-3.8337;0.8138;0.0000;-0.5019;0.8458
587;-3.5329;0.8146;0.0000;-0.4912;0.8302
588;-3.2272;0.8148;0.0000;-0.4824;0.8128
589;-2.9187;0.8146;0.0000;-0.4526;0.8308
590;-2.6090;0.8143;0.0000;-0.4738;0.8520
591;-2.2990;0.8138;0.0000;-0.4535;0.8407
592;-1.9885;0.8135;0.0000;-0.4013;0.8252
593;-1.6778;0.8135;0.0000;-0.4264;0.8228
594;-1.3672;0.8135;0.0000;-0.4225;0.7978
595;-1.0566;0.8138;0.0000;-0.3937;0.7378
596;-0.7458;0.8139;0.0000;-0.3904;0.7069
597;-0.4351;0.8140;0.0000;-0.4015;0.6960
598;-0.1245;0.8141;0.0000;-0.4267;0.7005
599;0.1861;0.8141;0.0000;-0.4405;0.7406
600;0.4967;0.8142;0.0000;-0.4386;0.7719
601;0.8073;0.8141;0.0000;-0.4466;0.7870
602;1.1178;0.8140;0.0000;-0.4269;0.7925
603;1.4284;0.8138;0.0000;-0.4232;0.7915
604;1.7390;0.8137;0.0000;-0.4334;0.7841
605;2.0495;0.8135;0.0000;-0.4371;0.7581
606;2.3596;0.8130;0.0000;-0.4239;0.7270
607;2.6688;0.8113;0.0000;-0.4085;0.7216
608;2.9750;0.8075;0.0000;-0.4162;0.7503
609;3.2746;0.8047;0.0000;-0.4575;0.7914
610;3.5624;0.8136;0.0000;-0.5109;0.8095
611;-4.2849;0.5450;0.0000;-0.5291;0.8582
612;-3.9858;0.5412;0.0000;-0.5271;0.8726
613;-3.6856;0.5416;0.0000;-0.4974;0.8969
614;-3.3810;0.5422;0.0000;-0.4853;0.8959
615;-3.0735;0.5423;0.0000;-0.4665;0.8697
616;-2.7642;0.5419;0.0000;-0.4455;0.8392
617;-2.4542;0.5416;0.0000;-0.4522;0.7766
618;-2.1438;0.5414;0.0000;-0.4166;0.7125
619;-1.8332;0.5413;0.0000;-0.4069;0.6997
620;-1.5226;0.5413;0.0000;-0.4238;0.7102
621;-1.2120;0.5415;0.0000;-0.3971;0.7191
622;-0.9013;0.5418;0.0000;-0.3890;0.7218
623;-0.5905;0.5419;0.0000;-0.3874;0.7215
624;-0.2797;0.5420;0.0000;-0.3921;0.7337
625;0.0309;0.5420;0.0000;-0.4397;0.7586
626;0.3414;0.5420;0.0000;-0.4508;0.7820
627;0.6519;0.5419;0.0000;-0.4551;0.7942
628;0.9624;0.5418;0.0000;-0.4409;0.8050
629;1.2731;0.5417;0.0000;-0.3974;0.8013
630;1.5839;0.5415;0.0000;-0.3940;0.7933
631;1.8945;0.5415;0.0000;-0.4294;0.7898
632;2.2050;0.5413;0.0000;-0.4397;0.7706
633;2.5158;0.5405;0.0000;-0.4107;0.7489
634;2.8275;0.5383;0.0000;-0.4130;0.7426
635;3.1423;0.5352;0.0000;-0.4327;0.7604
636;3.4669;0.5433;0.0000;-0.4945;0.7751
637;-4.3801;0.2837;0.0000;-0.5293;0.9080
638;-4.1218;0.2682;0.0000;-0.5220;0.8983
639;-3.8337;0.2680;0.0000;-0.5129;0.9047
640;-3.5335;0.2690;0.0000;-0.4882;0.8936
641;-3.2276;0.2696;0.0000;-0.4858;0.8500
642;-2.9192;0.2697;0.0000;-0.4611;0.7881
643;-2.6094;0.2695;0.0000;-0.4421;0.7188
644;-2.2992;0.2695;0.0000;-0.4177;0.6648
645;-1.9886;0.2694;0.0000;-0.3870;0.6391
646;-1.6778;0.2694;0.0000;-0.3955;0.6393
647;-1.3672;0.2694;0.0000;-0.3902;0.6726
648;-1.0564;0.2696;0.0000;-0.3955;0.7157
649;-0.7458;0.2697;0.0000;-0.4129;0.7276
650;-0.4351;0.2698;0.0000;-0.4023;0.7415
651;-0.1245;0.2698;0.0000;-0.4113;0.7764
652;0.1862;0.2696;0.0000;-0.4232;0.8102
653;0.4968;0.2696;0.0000;-0.4322;0.8337
654;0.8074;0.2695;0.0000;-0.4531;0.8531
655;1.1179;0.2693;0.0000;-0.4400;0.8610
656;1.4285;0.2692;0.0000;-0.4041;0.8492
657;1.7392;0.2692;0.0000;-0.3901;0.8350
658;2.0499;0.2690;0.0000;-0.4250;0.8450
659;2.3607;0.2688;0.0000;-0.4376;0.8673
660;2.6721;0.2680;0.0000;-0.4232;0.8620
661;2.9850;0.2665;0.0000;-0.4183;0.8255
662;3.2991;0.2667;0.0000;-0.4259;0.8023
663;3.5997;0.2868;0.0000;-0.4774;0.8064
664;-4.3056;-0.0002;0.0000;-0.5027;0.8361
665;-3.9945;-0.0044;0.0000;-0.5036;0.8219
666;-3.6887;-0.0036;0.0000;-0.4932;0.7960
667;-3.3821;-0.0029;0.0000;-0.5001;0.7834
668;-3.0740;-0.0025;0.0000;-0.4846;0.7724
669;-2.7645;-0.0024;0.0000;-0.4558;0.7258
670;-2.4544;-0.0024;0.0000;-0.4355;0.6715
671;-2.1440;-0.0024;0.0000;-0.3982;0.6328
672;-1.8333;-0.0024;0.0000;-0.3745;0.6139
673;-1.5225;-0.0025;0.0000;-0.3674;0.6204
674;-1.2117;-0.0025;0.0000;-0.3705;0.6669
675;-0.9010;-0.0024;0.0000;-0.4121;0.7244
676;-0.5904;-0.0023;0.0000;-0.4230;0.7488
677;-0.2798;-0.0024;0.0000;-0.4191;0.7527
678;0.0309;-0.0026;0.0000;-0.4086;0.7615
679;0.3416;-0.0028;0.0000;-0.4108;0.8033
680;0.6522;-0.0029;0.0000;-0.4398;0.8673
681;0.9627;-0.0032;0.0000;-0.4573;0.9079
682;1.2732;-0.0033;0.0000;-0.4423;0.9210
683;1.5838;-0.0033;0.0000;-0.3899;0.9060
684;1.8947;-0.0033;0.0000;-0.4029;0.8947
685;2.2055;-0.0036;0.0000;-0.4503;0.9190
686;2.5168;-0.0038;0.0000;-0.4417;0.9493
687;2.8303;-0.0042;0.0000;-0.4196;0.9347
688;3.1490;-0.0043;0.0000;-0.3937;0.8850
689;3.4781;-0.0056;0.0000;-0.4220;0.8724
690;-4.3844;-0.2798;0.0000;-0.4825;0.7274
691;-4.1277;-0.2775;0.0000;-0.4905;0.7244
692;-3.8362;-0.2752;0.0000;-0.4725;0.7183
693;-3.5342;-0.2749;0.0000;-0.4844;0.7311
694;-3.2279;-0.2747;0.0000;-0.4924;0.7668
695;-2.9192;-0.2747;0.0000;-0.4732;0.7772
696;-2.6094;-0.2745;0.0000;-0.4648;0.7582
697;-2.2992;-0.2743;0.0000;-0.4383;0.7277
698;-1.9887;-0.2742;0.0000;-0.3921;0.6987
699;-1.6779;-0.2742;0.0000;-0.3668;0.6725
700;-1.3671;-0.2743;0.0000;-0.3520;0.6579
701;-1.0563;-0.2745;0.0000;-0.3707;0.7066
702;-0.7456;-0.2746;0.0000;-0.4073;0.7646
703;-0.4349;-0.2746;0.0000;-0.4229;0.7739
704;-0.1243;-0.2746;0.0000;-0.4264;0.7739
705;0.1863;-0.2748;0.0000;-0.4240;0.8014
706;0.4969;-0.2752;0.0000;-0.4305;0.8682
707;0.8074;-0.2757;0.0000;-0.4327;0.9311
708;1.1181;-0.2760;0.0000;-0.4263;0.9455
709;1.4287;-0.2760;0.0000;-0.4086;0.9395
710;1.7394;-0.2759;0.0000;-0.4287;0.9590
711;2.0500;-0.2761;0.0000;-0.4620;0.9798
712;2.3608;-0.2763;0.0000;-0.4363;0.9893
713;2.6727;-0.2763;0.0000;-0.4153;1.0003
714;2.9857;-0.2760;0.0000;-0.4132;0.9699
715;3.2982;-0.2763;0.0000;-0.3992;0.9280
716;3.5989;-0.3003;0.0000;-0.4412;0.9074
717;-4.3015;-0.5616;0.0000;-0.4939;0.6850
718;-3.9918;-0.5469;0.0000;-0.4651;0.7124
719;-3.6874;-0.5465;0.0000;-0.4401;0.7573
720;-3.3814;-0.5467;0.0000;-0.4564;0.7892
721;-3.0734;-0.5468;0.0000;-0.4728;0.7959
722;-2.7642;-0.5468;0.0000;-0.4898;0.8052
723;-2.4542;-0.5467;0.0000;-0.4793;0.8204
724;-2.1439;-0.5465;0.0000;-0.4316;0.8194
725;-1.8333;-0.5464;0.0000;-0.3902;0.8116
726;-1.5226;-0.5463;0.0000;-0.3668;0.7932
727;-1.2118;-0.5464;0.0000;-0.3498;0.7717
728;-0.9009;-0.5467;0.0000;-0.3701;0.7739
729;-0.5902;-0.5468;0.0000;-0.4004;0.7896
730;-0.2795;-0.5468;0.0000;-0.4141;0.8287
731;0.0311;-0.5471;0.0000;-0.4284;0.8819
732;0.3417;-0.5475;0.0000;-0.4434;0.9060
733;0.6522;-0.5481;0.0000;-0.4389;0.9085
734;0.9628;-0.5486;0.0000;-0.4226;0.9044
735;1.2735;-0.5486;0.0000;-0.3954;0.9088
736;1.5843;-0.5487;0.0000;-0.4111;0.9638
737;1.8948;-0.5489;0.0000;-0.4704;1.0088
738;2.2055;-0.5490;0.0000;-0.4477;1.0051
739;2.5169;-0.5491;0.0000;-0.4081;0.9927
740;2.8296;-0.5490;0.0000;-0.4207;0.9739
741;3.1447;-0.5494;0.0000;-0.4239;0.9548
742;3.4651;-0.5530;0.0000;-0.4325;0.9285
743;-4.3752;-0.8534;0.0000;-0.5122;0.7552
744;-4.1161;-0.8192;0.0000;-0.4646;0.7790
745;-3.8307;-0.8184;0.0000;-0.4246;0.8161
746;-3.5320;-0.8189;0.0000;-0.4128;0.8357
747;-3.2267;-0.8191;0.0000;-0.4366;0.8396
748;-2.9184;-0.8192;0.0000;-0.4780;0.8537
749;-2.6090;-0.8192;0.0000;-0.4993;0.8865
750;-2.2990;-0.8190;0.0000;-0.4736;0.9167
751;-1.9886;-0.8189;0.0000;-0.4240;0.9170
752;-1.6780;-0.8189;0.0000;-0.3997;0.8978
753;-1.3672;-0.8188;0.0000;-0.3702;0.8950
754;-1.0564;-0.8189;0.0000;-0.3397;0.8831
755;-0.7455;-0.8191;0.0000;-0.3748;0.8695
756;-0.4348;-0.8192;0.0000;-0.4044;0.8860
757;-0.1241;-0.8195;0.0000;-0.4026;0.9167
758;0.1865;-0.8200;0.0000;-0.4458;0.9442
759;0.4970;-0.8204;0.0000;-0.4420;0.9344
760;0.8076;-0.8209;0.0000;-0.4295;0.8833
761;1.1182;-0.8211;0.0000;-0.4196;0.8675
762;1.4289;-0.8213;0.0000;-0.4090;0.9060
763;1.7395;-0.8217;0.0000;-0.4310;0.9371
764;2.0502;-0.8218;0.0000;-0.4357;0.9371
765;2.3611;-0.8219;0.0000;-0.3989;0.9157
766;2.6724;-0.8219;0.0000;-0.3970;0.8880
767;2.9835;-0.8225;0.0000;-0.4376;0.8959
768;3.2908;-0.8267;0.0000;-0.4504;0.9170
769;3.5764;-0.8100;0.0000;-0.4674;0.9021
770;-4.2710;-1.0911;0.0000;-0.4911;0.8900
771;-3.9792;-1.0920;0.0000;-0.4241;0.8976
772;-3.6827;-1.0920;0.0000;-0.3920;0.8766
773;-3.3795;-1.0918;0.0000;-0.4009;0.8552
774;-3.0726;-1.0918;0.0000;-0.4459;0.8815
775;-2.7636;-1.0918;0.0000;-0.4688;0.9347
776;-2.4537;-1.0919;0.0000;-0.4791;0.9815
777;-2.1435;-1.0918;0.0000;-0.4521;1.0045
778;-1.8330;-1.0916;0.0000;-0.4288;0.9995
779;-1.5224;-1.0914;0.0000;-0.4089;1.0168
780;-1.2118;-1.0915;0.0000;-0.3622;1.0489
781;-0.9008;-1.0917;0.0000;-0.3607;1.0380
782;-0.5901;-1.0918;0.0000;-0.4124;1.0127
783;-0.2795;-1.0920;0.0000;-0.4096;0.9824
784;0.0312;-1.0924;0.0000;-0.4171;0.9663
785;0.3418;-1.0930;0.0000;-0.4419;0.9629
786;0.6524;-1.0934;0.0000;-0.4164;0.9214
787;0.9631;-1.0935;0.0000;-0.4181;0.8874
788;1.2736;-1.0937;0.0000;-0.4288;0.8897
789;1.5842;-1.0940;0.0000;-0.4146;0.8764
790;1.8950;-1.0942;0.0000;-0.3987;0.8460
791;2.2059;-1.0944;0.0000;-0.3960;0.8267
792;2.5176;-1.0943;0.0000;-0.3880;0.8266
793;2.8312;-1.0942;0.0000;-0.4160;0.8556
794;3.1505;-1.0952;0.0000;-0.4629;0.8949
795;3.4878;-1.0992;0.0000;-0.4959;0.9371
796;-4.3741;-1.3273;0.0000;-0.4874;0.9492
797;-4.1150;-1.3643;0.0000;-0.4398;0.9238
798;-3.8298;-1.3662;0.0000;-0.4109;0.9118
799;-3.5315;-1.3651;0.0000;-0.3884;0.8989
800;-3.2263;-1.3645;0.0000;-0.4054;0.8946
801;-2.9181;-1.3645;0.0000;-0.4370;0.9183
802;-2.6086;-1.3647;0.0000;-0.4516;0.9421
803;-2.2985;-1.3648;0.0000;-0.4468;0.9676
804;-1.9880;-1.3646;0.0000;-0.4317;1.0064
805;-1.6774;-1.3645;0.0000;-0.4251;1.0630
806;-1.3668;-1.3647;0.0000;-0.4104;1.1050
807;-1.0561;-1.3649;0.0000;-0.3781;1.0982
808;-0.7454;-1.3649;0.0000;-0.4050;1.0881
809;-0.4348;-1.3649;0.0000;-0.4368;1.0876
810;-0.1242;-1.3650;0.0000;-0.4416;1.0599
811;0.1863;-1.3655;0.0000;-0.4474;1.0034
812;0.4969;-1.3659;0.0000;-0.4191;0.9509
813;0.8076;-1.3660;0.0000;-0.3883;0.9269
814;1.1183;-1.3662;0.0000;-0.3935;0.9152
815;1.4290;-1.3664;0.0000;-0.4039;0.8865
816;1.7397;-1.3666;0.0000;-0.3872;0.8497
817;2.0506;-1.3666;0.0000;-0.3858;0.8294
818;2.3615;-1.3666;0.0000;-0.4004;0.8309
819;2.6726;-1.3664;0.0000;-0.4055;0.8513
820;2.9832;-1.3661;0.0000;-0.4395;0.8821
821;3.2898;-1.3662;0.0000;-0.4852;0.9307
822;3.5725;-1.3889;0.0000;-0.5367;0.9757
823;-4.3013;-1.6198;0.0000;-0.4495;0.9208
824;-3.9912;-1.6375;0.0000;-0.4055;0.8882
825;-3.6868;-1.6384;0.0000;-0.3976;0.9080
826;-3.3810;-1.6374;0.0000;-0.3990;0.9372
827;-3.0730;-1.6371;0.0000;-0.4019;0.9177
828;-2.7635;-1.6372;0.0000;-0.4077;0.8776
829;-2.4534;-1.6373;0.0000;-0.4214;0.8628
830;-2.1429;-1.6374;0.0000;-0.4303;0.9034
831;-1.8325;-1.6375;0.0000;-0.4375;0.9493
832;-1.5219;-1.6377;0.0000;-0.4311;0.9643
833;-1.2113;-1.6379;0.0000;-0.4066;0.9839
834;-0.9006;-1.6379;0.0000;-0.4153;1.0267
835;-0.5900;-1.6380;0.0000;-0.4310;1.0609
836;-0.2794;-1.6381;0.0000;-0.4532;1.0758
837;0.0310;-1.6383;0.0000;-0.4636;1.0450
838;0.3415;-1.6385;0.0000;-0.4426;0.9846
839;0.6522;-1.6387;0.0000;-0.3904;0.9606
840;0.9630;-1.6388;0.0000;-0.3630;0.9477
841;1.2738;-1.6389;0.0000;-0.3763;0.9118
842;1.5845;-1.6390;0.0000;-0.3850;0.8734
843;1.8953;-1.6390;0.0000;-0.3798;0.8577
844;2.2062;-1.6391;0.0000;-0.4035;0.8651
845;2.5174;-1.6391;0.0000;-0.4213;0.8815
846;2.8291;-1.6390;0.0000;-0.4326;0.8970
847;3.1427;-1.6391;0.0000;-0.4715;0.9203
848;3.4625;-1.6451;0.0000;-0.5211;0.9530
849;-4.3845;-1.9021;0.0000;-0.4549;0.9717
850;-4.1280;-1.9059;0.0000;-0.3961;0.9535
851;-3.8360;-1.9100;0.0000;-0.3720;0.9226
852;-3.5339;-1.9102;0.0000;-0.3966;0.9344
853;-3.2273;-1.9098;0.0000;-0.3988;0.9390
854;-2.9183;-1.9097;0.0000;-0.3786;0.9207
855;-2.6083;-1.9096;0.0000;-0.3920;0.9190
856;-2.2980;-1.9098;0.0000;-0.4158;0.9449
857;-1.9875;-1.9100;0.0000;-0.4420;0.9612
858;-1.6770;-1.9100;0.0000;-0.4483;0.9317
859;-1.3665;-1.9102;0.0000;-0.4127;0.9171
860;-1.0557;-1.9106;0.0000;-0.4187;0.9602
861;-0.7453;-1.9109;0.0000;-0.4647;0.9974
862;-0.4348;-1.9110;0.0000;-0.4515;1.0080
863;-0.1242;-1.9111;0.0000;-0.4501;1.0073
864;0.1864;-1.9113;0.0000;-0.4463;0.9794
865;0.4969;-1.9113;0.0000;-0.4182;0.9399
866;0.8076;-1.9115;0.0000;-0.3695;0.9224
867;1.1185;-1.9115;0.0000;-0.3525;0.9043
868;1.4293;-1.9115;0.0000;-0.3752;0.8790
869;1.7400;-1.9115;0.0000;-0.3968;0.8693
870;2.0508;-1.9115;0.0000;-0.4160;0.8673
871;2.3616;-1.9116;0.0000;-0.4188;0.8733
872;2.6726;-1.9118;0.0000;-0.4202;0.9014
873;2.9832;-1.9116;0.0000;-0.4605;0.9412
874;3.2916;-1.9104;0.0000;-0.5030;0.9503
875;3.5963;-1.9056;0.0000;-0.4994;0.9468
876;-4.3053;-2.1828;0.0000;-0.4399;0.9797
877;-3.9947;-2.1807;0.0000;-0.3538;0.9632
878;-3.6886;-2.1822;0.0000;-0.3598;0.9394
879;-3.3816;-2.1824;0.0000;-0.3970;0.9219
880;-3.0731;-2.1823;0.0000;-0.3966;0.9254
881;-2.7635;-2.1824;0.0000;-0.3826;0.9766
882;-2.4532;-2.1826;0.0000;-0.4025;1.0350
883;-2.1427;-2.1829;0.0000;-0.4163;1.0462
884;-1.8321;-2.1829;0.0000;-0.4457;1.0294
885;-1.5217;-2.1829;0.0000;-0.4388;0.9987
886;-1.2110;-2.1832;0.0000;-0.4040;0.9718
887;-0.9004;-2.1835;0.0000;-0.4495;0.9647
888;-0.5900;-2.1837;0.0000;-0.4818;0.9767
889;-0.2795;-2.1839;0.0000;-0.4671;0.9839
890;0.0310;-2.1840;0.0000;-0.4367;0.9660
891;0.3416;-2.1840;0.0000;-0.4061;0.9249
892;0.6523;-2.1840;0.0000;-0.3941;0.8784
893;0.9631;-2.1841;0.0000;-0.3770;0.8380
894;1.2739;-2.1840;0.0000;-0.3712;0.8098
895;1.5847;-2.1840;0.0000;-0.3941;0.8101
896;1.8954;-2.1840;0.0000;-0.4222;0.8361
897;2.2060;-2.1841;0.0000;-0.4329;0.8503
898;2.5171;-2.1842;0.0000;-0.4092;0.8474
899;2.8288;-2.1845;0.0000;-0.4176;0.8740
900;3.1416;-2.1833;0.0000;-0.4800;0.9078
901;3.4605;-2.1717;0.0000;-0.4827;0.9045
902;-4.3792;-2.4663;0.0000;-0.4193;0.8490
903;-4.1215;-2.4534;0.0000;-0.3693;0.8721
904;-3.8337;-2.4540;0.0000;-0.3751;0.8903
905;-3.5332;-2.4547;0.0000;-0.3996;0.8914
906;-3.2271;-2.4548;0.0000;-0.3992;0.8955
907;-2.9183;-2.4549;0.0000;-0.3883;0.9009
908;-2.6083;-2.4554;0.0000;-0.4091;0.9083
909;-2.2980;-2.4557;0.0000;-0.4185;0.9202
910;-1.9875;-2.4559;0.0000;-0.4088;0.9342
911;-1.6769;-2.4558;0.0000;-0.4373;0.9523
912;-1.3663;-2.4558;0.0000;-0.4296;0.9615
913;-1.0557;-2.4561;0.0000;-0.4138;0.9491
914;-0.7451;-2.4564;0.0000;-0.4493;0.9394
915;-0.4346;-2.4566;0.0000;-0.4763;0.9433
916;-0.1242;-2.4567;0.0000;-0.4496;0.9390
917;0.1864;-2.4567;0.0000;-0.4029;0.9147
918;0.4972;-2.4565;0.0000;-0.3921;0.8864
919;0.8079;-2.4564;0.0000;-0.4007;0.8548
920;1.1186;-2.4562;0.0000;-0.4036;0.8220
921;1.4292;-2.4561;0.0000;-0.4113;0.8041
922;1.7399;-2.4562;0.0000;-0.4187;0.7974
923;2.0506;-2.4564;0.0000;-0.4270;0.8060
924;2.3613;-2.4566;0.0000;-0.4201;0.8132
925;2.6721;-2.4570;0.0000;-0.4008;0.8018
926;2.9821;-2.4577;0.0000;-0.4270;0.7882
927;3.2861;-2.4540;0.0000;-0.4795;0.7907
928;3.5672;-2.4239;0.0000;-0.4599;0.7990
929;-4.2846;-2.7287;0.0000;-0.3822;0.7496
930;-3.9858;-2.7270;0.0000;-0.3832;0.7787
931;-3.6854;-2.7273;0.0000;-0.4078;0.8267
932;-3.3807;-2.7273;0.0000;-0.3873;0.8504
933;-3.0728;-2.7274;0.0000;-0.3821;0.8619
934;-2.7633;-2.7276;0.0000;-0.4192;0.8275
935;-2.4533;-2.7278;0.0000;-0.4359;0.7756
936;-2.1429;-2.7282;0.0000;-0.4081;0.7544
937;-1.8322;-2.7283;0.0000;-0.4113;0.7854
938;-1.5217;-2.7283;0.0000;-0.4394;0.8555
939;-1.2111;-2.7286;0.0000;-0.4272;0.8998
940;-0.9004;-2.7289;0.0000;-0.4068;0.9064
941;-0.5898;-2.7291;0.0000;-0.4375;0.8945
942;-0.2792;-2.7293;0.0000;-0.4453;0.8794
943;0.0314;-2.7293;0.0000;-0.4209;0.8741
944;0.3420;-2.7291;0.0000;-0.4081;0.8661
945;0.6526;-2.7290;0.0000;-0.4126;0.8557
946;0.9633;-2.7288;0.0000;-0.4025;0.8576
947;1.2740;-2.7287;0.0000;-0.4134;0.8556
948;1.5846;-2.7286;0.0000;-0.4448;0.8413
949;1.8951;-2.7286;0.0000;-0.4430;0.8155
950;2.2060;-2.7288;0.0000;-0.4257;0.7920
951;2.5175;-2.7291;0.0000;-0.4068;0.7812
952;2.8310;-2.7295;0.0000;-0.3968;0.7573
953;3.1501;-2.7291;0.0000;-0.4328;0.7223
954;3.4827;-2.7163;0.0000;-0.4438;0.7102
955;-4.4038;-2.9891;0.0000;-0.3834;0.7938
956;-4.1253;-2.9970;0.0000;-0.3808;0.8223
957;-3.8336;-2.9995;0.0000;-0.4041;0.8604
958;-3.5329;-2.9998;0.0000;-0.3937;0.8683
959;-3.2268;-2.9998;0.0000;-0.3507;0.8534
960;-2.9181;-2.9999;0.0000;-0.3950;0.8461
961;-2.6083;-3.0000;0.0000;-0.4352;0.8190
962;-2.2981;-3.0001;0.0000;-0.4332;0.7656
963;-1.9876;-3.0002;0.0000;-0.4106;0.7442
964;-1.6769;-3.0005;0.0000;-0.4115;0.7810
965;-1.3663;-3.0009;0.0000;-0.4324;0.8238
966;-1.0558;-3.0013;0.0000;-0.4232;0.8519
967;-0.7451;-3.0016;0.0000;-0.4162;0.8587
968;-0.4345;-3.0017;0.0000;-0.4362;0.8334
969;-0.1239;-3.0017;0.0000;-0.4271;0.8118
970;0.1867;-3.0017;0.0000;-0.4112;0.8230
971;0.4974;-3.0014;0.0000;-0.4235;0.8381
972;0.8079;-3.0013;0.0000;-0.4207;0.8323
973;1.1186;-3.0012;0.0000;-0.3837;0.8306
974;1.4295;-3.0010;0.0000;-0.4137;0.8353
975;1.7400;-3.0010;0.0000;-0.4647;0.8192
976;2.0505;-3.0010;0.0000;-0.4572;0.7743
977;2.3614;-3.0011;0.0000;-0.4251;0.7372
978;2.6730;-3.0012;0.0000;-0.3910;0.7175
979;2.9857;-3.0011;0.0000;-0.3942;0.6974
980;3.2957;-3.0008;0.0000;-0.4245;0.6932
981;3.5756;-3.0012;0.0000;-0.4200;0.6954
982;-4.2833;-3.2594;0.0000;-0.3998;0.9130
983;-3.9851;-3.2707;0.0000;-0.3919;0.9389
984;-3.6851;-3.2726;0.0000;-0.3994;0.9199
985;-3.3807;-3.2724;0.0000;-0.3562;0.8937
986;-3.0728;-3.2723;0.0000;-0.3446;0.8836
987;-2.7632;-3.2724;0.0000;-0.3931;0.8785
988;-2.4532;-3.2724;0.0000;-0.4344;0.8549
989;-2.1429;-3.2725;0.0000;-0.4448;0.8214
990;-1.8324;-3.2727;0.0000;-0.4230;0.8024
991;-1.5217;-3.2730;0.0000;-0.4110;0.7903
992;-1.2111;-3.2735;0.0000;-0.4136;0.7752
993;-0.9004;-3.2739;0.0000;-0.4284;0.7731
994;-0.5899;-3.2740;0.0000;-0.4323;0.7811
995;-0.2793;-3.2740;0.0000;-0.4192;0.7719
996;0.0314;-3.2740;0.0000;-0.4085;0.7666
997;0.3421;-3.2739;0.0000;-0.4031;0.7995
998;0.6527;-3.2738;0.0000;-0.4282;0.8337
999;0.9633;-3.2736;0.0000;-0.4328;0.8433
1000;1.2739;-3.2735;0.0000;-0.4116;0.8397
1001;1.5846;-3.2734;0.0000;-0.4325;0.8198
1002;1.8951;-3.2733;0.0000;-0.4464;0.7770
1003;2.2060;-3.2731;0.0000;-0.4348;0.7379
1004;2.5175;-3.2730;0.0000;-0.4036;0.7186
1005;2.8311;-3.2725;0.0000;-0.4010;0.6937
1006;3.1499;-3.2729;0.0000;-0.4144;0.6823
1007;3.4819;-3.2860;0.0000;-0.4057;0.6987
1008;-4.3759;-3.5160;0.0000;-0.4184;0.9406
1009;-4.1193;-3.5412;0.0000;-0.3976;0.9234
1010;-3.8325;-3.5457;0.0000;-0.3876;0.8807
1011;-3.5328;-3.5455;0.0000;-0.3743;0.8668
1012;-3.2269;-3.5451;0.0000;-0.3558;0.8753
1013;-2.9183;-3.5450;0.0000;-0.3732;0.8674
1014;-2.6084;-3.5450;0.0000;-0.3987;0.8474
1015;-2.2981;-3.5449;0.0000;-0.4278;0.8438
1016;-1.9876;-3.5449;0.0000;-0.4438;0.8374
1017;-1.6772;-3.5452;0.0000;-0.4286;0.7940
1018;-1.3665;-3.5455;0.0000;-0.3930;0.7503
1019;-1.0557;-3.5458;0.0000;-0.4109;0.7324
1020;-0.7452;-3.5461;0.0000;-0.4417;0.7330
1021;-0.4346;-3.5462;0.0000;-0.4136;0.7442
1022;-0.1239;-3.5462;0.0000;-0.4036;0.7568
1023;0.1867;-3.5462;0.0000;-0.4097;0.7750
1024;0.4975;-3.5462;0.0000;-0.4011;0.8138
1025;0.8081;-3.5461;0.0000;-0.4435;0.8611
1026;1.1185;-3.5460;0.0000;-0.4499;0.8723
1027;1.4291;-3.5458;0.0000;-0.4139;0.8519
1028;1.7398;-3.5457;0.0000;-0.4210;0.8277
1029;2.0505;-3.5453;0.0000;-0.4297;0.8068
1030;2.3613;-3.5452;0.0000;-0.4027;0.7845
1031;2.6722;-3.5448;0.0000;-0.3991;0.7594
1032;2.9818;-3.5445;0.0000;-0.4327;0.7385
1033;3.2849;-3.5488;0.0000;-0.4213;0.7085
1034;3.5623;-3.5795;0.0000;-0.4057;0.6940
1035;-4.3013;-3.8048;0.0000;-0.4186;0.8873
1036;-3.9926;-3.8173;0.0000;-0.3790;0.8434
1037;-3.6878;-3.8183;0.0000;-0.3801;0.8326
1038;-3.3815;-3.8178;0.0000;-0.3838;0.8453
1039;-3.0732;-3.8176;0.0000;-0.3934;0.8296
1040;-2.7637;-3.8175;0.0000;-0.4004;0.8061
1041;-2.4535;-3.8174;0.0000;-0.4063;0.8225
1042;-2.1430;-3.8175;0.0000;-0.4154;0.8464
1043;-1.8325;-3.8175;0.0000;-0.4312;0.8270
1044;-1.5219;-3.8175;0.0000;-0.4214;0.7899
1045;-1.2112;-3.8178;0.0000;-0.4092;0.7567
1046;-0.9006;-3.8182;0.0000;-0.4299;0.7169
1047;-0.5900;-3.8183;0.0000;-0.4081;0.7059
1048;-0.2793;-3.8184;0.0000;-0.3953;0.7339
1049;0.0314;-3.8185;0.0000;-0.4303;0.7740
1050;0.3419;-3.8185;0.0000;-0.4129;0.8196
1051;0.6526;-3.8187;0.0000;-0.3937;0.8358
1052;0.9633;-3.8187;0.0000;-0.4199;0.8268
1053;1.2739;-3.8184;0.0000;-0.4216;0.8467
1054;1.5846;-3.8182;0.0000;-0.4261;0.8506
1055;1.8952;-3.8179;0.0000;-0.4365;0.8395
1056;2.2059;-3.8177;0.0000;-0.4016;0.8343
1057;2.5170;-3.8175;0.0000;-0.3907;0.8137
1058;2.8282;-3.8174;0.0000;-0.4348;0.7985
1059;3.1401;-3.8196;0.0000;-0.4368;0.7789
1060;3.4577;-3.8320;0.0000;-0.4130;0.7412
1061;-4.3871;-4.0813;0.0000;-0.4290;0.7717
1062;-4.1284;-4.0892;0.0000;-0.4022;0.7811
1063;-3.8364;-4.0907;0.0000;-0.3819;0.7924
1064;-3.5342;-4.0907;0.0000;-0.3831;0.8196
1065;-3.2275;-4.0905;0.0000;-0.3994;0.8280
1066;-2.9186;-4.0903;0.0000;-0.4074;0.8073
1067;-2.6087;-4.0902;0.0000;-0.4202;0.8075
1068;-2.2984;-4.0903;0.0000;-0.4073;0.8185
1069;-1.9878;-4.0903;0.0000;-0.4050;0.8274
1070;-1.6772;-4.0902;0.0000;-0.4359;0.8398
1071;-1.3667;-4.0904;0.0000;-0.4396;0.8229
1072;-1.0561;-4.0904;0.0000;-0.4242;0.7742
1073;-0.7455;-4.0905;0.0000;-0.3963;0.7297
1074;-0.4347;-4.0906;0.0000;-0.3864;0.7259
1075;-0.1240;-4.0908;0.0000;-0.4181;0.7544
1076;0.1865;-4.0910;0.0000;-0.4337;0.7841
1077;0.4972;-4.0912;0.0000;-0.3744;0.7929
1078;0.8080;-4.0910;0.0000;-0.3751;0.7818
1079;1.1188;-4.0909;0.0000;-0.4118;0.7931
1080;1.4294;-4.0908;0.0000;-0.4285;0.8187
1081;1.7399;-4.0905;0.0000;-0.4405;0.8239
1082;2.0506;-4.0902;0.0000;-0.4131;0.8312
1083;2.3614;-4.0899;0.0000;-0.3841;0.8506
1084;2.6721;-4.0898;0.0000;-0.4231;0.8652
1085;2.9816;-4.0904;0.0000;-0.4466;0.8633
1086;3.2887;-4.0928;0.0000;-0.4255;0.8333
1087;3.5918;-4.0980;0.0000;-0.4103;0.7704
1088;-4.3033;-4.3691;0.0000;-0.3960;0.7279
1089;-3.9933;-4.3637;0.0000;-0.3982;0.7417
1090;-3.6881;-4.3642;0.0000;-0.3876;0.7547
1091;-3.3815;-4.3643;0.0000;-0.4024;0.7759
1092;-3.0732;-4.3641;0.0000;-0.4062;0.7926
1093;-2.7636;-4.3638;0.0000;-0.4072;0.7939
1094;-2.4534;-4.3638;0.0000;-0.4091;0.7935
1095;-2.1429;-4.3637;0.0000;-0.4009;0.8010
1096;-1.8323;-4.3637;0.0000;-0.4235;0.8203
1097;-1.5218;-4.3636;0.0000;-0.4388;0.8359
1098;-1.2112;-4.3636;0.0000;-0.4222;0.8278
1099;-0.9005;-4.3635;0.0000;-0.4003;0.8026
1100;-0.5897;-4.3634;0.0000;-0.3968;0.7834
1101;-0.2791;-4.3635;0.0000;-0.4087;0.7750
1102;0.0316;-4.3636;0.0000;-0.4259;0.7590
1103;0.3422;-4.3637;0.0000;-0.3769;0.7537
1104;0.6531;-4.3636;0.0000;-0.3399;0.7749
1105;0.9639;-4.3634;0.0000;-0.3831;0.7942
1106;1.2746;-4.3633;0.0000;-0.4217;0.8029
1107;1.5852;-4.3630;0.0000;-0.4253;0.8355
1108;1.8958;-4.3626;0.0000;-0.4301;0.8690
1109;2.2065;-4.3623;0.0000;-0.4168;0.8978
1110;2.5173;-4.3622;0.0000;-0.4117;0.9226
1111;2.8282;-4.3623;0.0000;-0.4328;0.9082
1112;3.1400;-4.3623;0.0000;-0.4298;0.8707
1113;3.4579;-4.3569;0.0000;-0.4127;0.8265
1114;-4.3751;-4.6588;0.0000;-0.3690;0.7077
1115;-4.1174;-4.6404;0.0000;-0.3781;0.7189
1116;-3.8307;-4.6399;0.0000;-0.3829;0.7279
1117;-3.5308;-4.6397;0.0000;-0.3861;0.7203
1118;-3.2249;-4.6395;0.0000;-0.4039;0.7291
1119;-2.9163;-4.6391;0.0000;-0.4105;0.7537
1120;-2.6064;-4.6387;0.0000;-0.4090;0.7718
1121;-2.2961;-4.6386;0.0000;-0.4019;0.7942
1122;-1.9854;-4.6383;0.0000;-0.3963;0.8030
1123;-1.6748;-4.6381;0.0000;-0.4079;0.8047
1124;-1.3641;-4.6380;0.0000;-0.4247;0.8159
1125;-1.0535;-4.6376;0.0000;-0.4230;0.8264
1126;-0.7429;-4.6372;0.0000;-0.4144;0.8350
1127;-0.4322;-4.6370;0.0000;-0.4157;0.8193
1128;-0.1216;-4.6368;0.0000;-0.4131;0.7890
1129;0.1891;-4.6366;0.0000;-0.3929;0.7753
1130;0.5000;-4.6366;0.0000;-0.3315;0.7768
1131;0.8109;-4.6363;0.0000;-0.3433;0.7963
1132;1.1218;-4.6359;0.0000;-0.3899;0.8261
1133;1.4324;-4.6356;0.0000;-0.4069;0.8516
1134;1.7431;-4.6352;0.0000;-0.4131;0.8915
1135;2.0538;-4.6347;0.0000;-0.4242;0.9286
1136;2.3643;-4.6345;0.0000;-0.4362;0.9370
1137;2.6745;-4.6343;0.0000;-0.4271;0.9110
1138;2.9831;-4.6339;0.0000;-0.4228;0.8486
1139;3.2862;-4.6317;0.0000;-0.4182;0.8072
1140;3.5665;-4.6070;0.0000;-0.4269;0.8016
1141;-4.2744;-4.9214;0.0000;-0.3579;0.6946
1142;-3.9757;-4.9203;0.0000;-0.3681;0.6945
1143;-3.6750;-4.9184;0.0000;-0.3712;0.6969
1144;-3.3698;-4.9172;0.0000;-0.3772;0.6849
1145;-3.0617;-4.9164;0.0000;-0.4063;0.6900
1146;-2.7522;-4.9156;0.0000;-0.4109;0.7337
1147;-2.4419;-4.9151;0.0000;-0.4043;0.7522
1148;-2.1314;-4.9146;0.0000;-0.3959;0.7486
1149;-1.8206;-4.9140;0.0000;-0.3777;0.7527
1150;-1.5098;-4.9134;0.0000;-0.3996;0.7588
1151;-1.1991;-4.9129;0.0000;-0.4311;0.7900
1152;-0.8885;-4.9123;0.0000;-0.4352;0.8280
1153;-0.5778;-4.9116;0.0000;-0.4205;0.8271
1154;-0.2671;-4.9110;0.0000;-0.4043;0.8160
1155;0.0437;-4.9104;0.0000;-0.3965;0.8086
1156;0.3545;-4.9099;0.0000;-0.3695;0.7739
1157;0.6654;-4.9094;0.0000;-0.3461;0.7642
1158;0.9763;-4.9088;0.0000;-0.3569;0.7983
1159;1.2872;-4.9082;0.0000;-0.3688;0.8065
1160;1.5981;-4.9075;0.0000;-0.3878;0.8089
1161;1.9088;-4.9068;0.0000;-0.3867;0.8453
1162;2.2198;-4.9061;0.0000;-0.4001;0.8513
1163;2.5308;-4.9054;0.0000;-0.4492;0.8245
1164;2.8424;-4.9042;0.0000;-0.4472;0.8150
1165;3.1575;-4.9008;0.0000;-0.4340;0.8037
1166;3.4861;-4.8900;0.0000;-0.4471;0.7991
1167;-4.3769;-5.1790;0.0000;-0.3949;0.6818
1168;-4.0982;-5.1999;0.0000;-0.3564;0.6925
1169;-3.8022;-5.1980;0.0000;-0.3487;0.6967
1170;-3.4985;-5.1962;0.0000;-0.3507;0.7029
1171;-3.1910;-5.1947;0.0000;-0.3889;0.7031
1172;-2.8816;-5.1935;0.0000;-0.4311;0.7258
1173;-2.5715;-5.1925;0.0000;-0.4126;0.7458
1174;-2.2608;-5.1914;0.0000;-0.3801;0.7130
1175;-1.9499;-5.1903;0.0000;-0.3651;0.6932
1176;-1.6389;-5.1893;0.0000;-0.3920;0.7071
1177;-1.3281;-5.1884;0.0000;-0.4164;0.7239
1178;-1.0173;-5.1874;0.0000;-0.4220;0.7512
1179;-0.7065;-5.1863;0.0000;-0.4230;0.7726
1180;-0.3956;-5.1852;0.0000;-0.4042;0.7763
1181;-0.0847;-5.1841;0.0000;-0.3919;0.7837
1182;0.2262;-5.1830;0.0000;-0.3851;0.7898
1183;0.5372;-5.1818;0.0000;-0.3804;0.7701
1184;0.8481;-5.1808;0.0000;-0.3689;0.7495
1185;1.1591;-5.1798;0.0000;-0.3363;0.7496
1186;1.4703;-5.1786;0.0000;-0.3447;0.7469
1187;1.7813;-5.1775;0.0000;-0.3784;0.7555
1188;2.0922;-5.1764;0.0000;-0.3689;0.7685
1189;2.4031;-5.1751;0.0000;-0.4040;0.7550
1190;2.7131;-5.1736;0.0000;-0.4537;0.7630
1191;3.0200;-5.1715;0.0000;-0.4374;0.8001
1192;3.3162;-5.1660;0.0000;-0.4352;0.8044
1193;3.5748;-5.1620;0.0000;-0.4814;0.7866
