# Units: length:mm angle:deg time:s strain:% 
# Stage: image-000000
stage;index;relative_time;date
"image-000000";1;0.0000;"2022-09-26T12:00:50.387"
# Name : Surface_xy
id;x;y;z;epsilon_x;epsilon_y
0;-4.5187;5.8617;0.0000;0.0000;0.0000
1;-4.2064;5.8619;0.0000;0.0000;0.0000
2;-3.8941;5.8621;0.0000;0.0000;0.0000
3;-3.5818;5.8624;0.0000;0.0000;0.0000
4;-3.2694;5.8626;0.0000;0.0000;0.0000
5;-2.9571;5.8629;0.0000;0.0000;0.0000
6;-2.6448;5.8631;0.0000;0.0000;0.0000
7;-2.3325;5.8633;0.0000;0.0000;0.0000
8;-2.0202;5.8636;0.0000;0.0000;0.0000
9;-1.7079;5.8638;0.0000;0.0000;0.0000
10;-1.3956;5.8641;0.0000;0.0000;0.0000
11;-1.0832;5.8643;0.0000;0.0000;0.0000
12;-0.7709;5.8645;0.0000;0.0000;0.0000
13;-0.4586;5.8648;0.0000;0.0000;0.0000
14;-0.1463;5.8650;0.0000;0.0000;0.0000
15;0.1660;5.8653;0.0000;0.0000;0.0000
16;0.4783;5.8655;0.0000;0.0000;0.0000
17;0.7907;5.8657;0.0000;0.0000;0.0000
18;1.1030;5.8660;0.0000;0.0000;0.0000
19;1.4153;5.8662;0.0000;0.0000;0.0000
20;1.7276;5.8665;0.0000;0.0000;0.0000
21;2.0399;5.8667;0.0000;0.0000;0.0000
22;2.3522;5.8669;0.0000;0.0000;0.0000
23;2.6646;5.8672;0.0000;0.0000;0.0000
24;2.9769;5.8674;0.0000;0.0000;0.0000
25;3.2892;5.8677;0.0000;0.0000;0.0000
26;3.6015;5.8679;0.0000;0.0000;0.0000
27;3.8506;5.7590;0.0000;0.0000;0.0000
28;3.8497;5.4467;0.0000;0.0000;0.0000
29;3.8488;5.1344;0.0000;0.0000;0.0000
30;3.8478;4.8221;0.0000;0.0000;0.0000
31;3.8469;4.5097;0.0000;0.0000;0.0000
32;3.8459;4.1974;0.0000;0.0000;0.0000
33;3.8450;3.8851;0.0000;0.0000;0.0000
34;3.8441;3.5728;0.0000;0.0000;0.0000
35;3.8431;3.2605;0.0000;0.0000;0.0000
36;3.8422;2.9482;0.0000;0.0000;0.0000
37;3.8413;2.6359;0.0000;0.0000;0.0000
38;3.8403;2.3235;0.0000;0.0000;0.0000
39;3.8394;2.0112;0.0000;0.0000;0.0000
40;3.8384;1.6989;0.0000;0.0000;0.0000
41;3.8375;1.3866;0.0000;0.0000;0.0000
42;3.8366;1.0743;0.0000;0.0000;0.0000
43;3.8356;0.7620;0.0000;0.0000;0.0000
44;3.8347;0.4497;0.0000;0.0000;0.0000
45;3.8338;0.1373;0.0000;0.0000;0.0000
46;3.8328;-0.1750;0.0000;0.0000;0.0000
47;3.8319;-0.4873;0.0000;0.0000;0.0000
48;3.8309;-0.7996;0.0000;0.0000;0.0000
49;3.8300;-1.1119;0.0000;0.0000;0.0000
50;3.8291;-1.4242;0.0000;0.0000;0.0000
51;3.8281;-1.7365;0.0000;0.0000;0.0000
52;3.8272;-2.0489;0.0000;0.0000;0.0000
53;3.8263;-2.3612;0.0000;0.0000;0.0000
54;3.8253;-2.6735;0.0000;0.0000;0.0000
55;3.8244;-2.9858;0.0000;0.0000;0.0000
56;3.8234;-3.2981;0.0000;0.0000;0.0000
57;3.8225;-3.6104;0.0000;0.0000;0.0000
58;3.8216;-3.9227;0.0000;0.0000;0.0000
59;3.8206;-4.2351;0.0000;0.0000;0.0000
60;3.8197;-4.5474;0.0000;0.0000;0.0000
61;3.8187;-4.8597;0.0000;0.0000;0.0000
62;3.8178;-5.1720;0.0000;0.0000;0.0000
63;3.5523;-5.2443;0.0000;0.0000;0.0000
64;3.2399;-5.2460;0.0000;0.0000;0.0000
65;2.9276;-5.2478;0.0000;0.0000;0.0000
66;2.6153;-5.2495;0.0000;0.0000;0.0000
67;2.3030;-5.2513;0.0000;0.0000;0.0000
68;1.9907;-5.2530;0.0000;0.0000;0.0000
69;1.6784;-5.2548;0.0000;0.0000;0.0000
70;1.3661;-5.2565;0.0000;0.0000;0.0000
71;1.0538;-5.2582;0.0000;0.0000;0.0000
72;0.7415;-5.2600;0.0000;0.0000;0.0000
73;0.4291;-5.2617;0.0000;0.0000;0.0000
74;0.1168;-5.2635;0.0000;0.0000;0.0000
75;-0.1955;-5.2652;0.0000;0.0000;0.0000
76;-0.5078;-5.2669;0.0000;0.0000;0.0000
77;-0.8201;-5.2687;0.0000;0.0000;0.0000
78;-1.1324;-5.2704;0.0000;0.0000;0.0000
79;-1.4447;-5.2722;0.0000;0.0000;0.0000
80;-1.7570;-5.2739;0.0000;0.0000;0.0000
81;-2.0693;-5.2756;0.0000;0.0000;0.0000
82;-2.3817;-5.2774;0.0000;0.0000;0.0000
83;-2.6940;-5.2791;0.0000;0.0000;0.0000
84;-3.0063;-5.2809;0.0000;0.0000;0.0000
85;-3.3186;-5.2826;0.0000;0.0000;0.0000
86;-3.6309;-5.2843;0.0000;0.0000;0.0000
87;-3.9432;-5.2861;0.0000;0.0000;0.0000
88;-4.2555;-5.2878;0.0000;0.0000;0.0000
89;-4.5667;-5.2660;0.0000;0.0000;0.0000
90;-4.6169;-4.9988;0.0000;0.0000;0.0000
91;-4.6172;-4.6864;0.0000;0.0000;0.0000
92;-4.6175;-4.3741;0.0000;0.0000;0.0000
93;-4.6177;-4.0618;0.0000;0.0000;0.0000
94;-4.6180;-3.7495;0.0000;0.0000;0.0000
95;-4.6183;-3.4372;0.0000;0.0000;0.0000
96;-4.6185;-3.1249;0.0000;0.0000;0.0000
97;-4.6188;-2.8126;0.0000;0.0000;0.0000
98;-4.6191;-2.5002;0.0000;0.0000;0.0000
99;-4.6193;-2.1879;0.0000;0.0000;0.0000
100;-4.6196;-1.8756;0.0000;0.0000;0.0000
101;-4.6199;-1.5633;0.0000;0.0000;0.0000
102;-4.6201;-1.2510;0.0000;0.0000;0.0000
103;-4.6204;-0.9387;0.0000;0.0000;0.0000
104;-4.6207;-0.6263;0.0000;0.0000;0.0000
105;-4.6209;-0.3140;0.0000;0.0000;0.0000
106;-4.6212;-0.0017;0.0000;0.0000;0.0000
107;-4.6215;0.3106;0.0000;0.0000;0.0000
108;-4.6217;0.6229;0.0000;0.0000;0.0000
109;-4.6220;0.9352;0.0000;0.0000;0.0000
110;-4.6223;1.2476;0.0000;0.0000;0.0000
111;-4.6225;1.5599;0.0000;0.0000;0.0000
112;-4.6228;1.8722;0.0000;0.0000;0.0000
113;-4.6231;2.1845;0.0000;0.0000;0.0000
114;-4.6233;2.4968;0.0000;0.0000;0.0000
115;-4.6236;2.8091;0.0000;0.0000;0.0000
116;-4.6239;3.1215;0.0000;0.0000;0.0000
117;-4.6241;3.4338;0.0000;0.0000;0.0000
118;-4.6244;3.7461;0.0000;0.0000;0.0000
119;-4.6247;4.0584;0.0000;0.0000;0.0000
120;-4.6249;4.3707;0.0000;0.0000;0.0000
121;-4.6252;4.6830;0.0000;0.0000;0.0000
122;-4.6255;4.9953;0.0000;0.0000;0.0000
123;-4.6257;5.3077;0.0000;0.0000;0.0000
124;-4.6260;5.6200;0.0000;0.0000;0.0000
125;-4.3275;5.5855;0.0000;0.0000;0.0000
126;-4.0250;5.5815;0.0000;0.0000;0.0000
127;-3.7190;5.5791;0.0000;0.0000;0.0000
128;-3.4099;5.5783;0.0000;0.0000;0.0000
129;-3.0991;5.5781;0.0000;0.0000;0.0000
130;-2.7875;5.5782;0.0000;0.0000;0.0000
131;-2.4756;5.5783;0.0000;0.0000;0.0000
132;-2.1636;5.5784;0.0000;0.0000;0.0000
133;-1.8515;5.5786;0.0000;0.0000;0.0000
134;-1.5393;5.5788;0.0000;0.0000;0.0000
135;-1.2272;5.5789;0.0000;0.0000;0.0000
136;-0.9151;5.5791;0.0000;0.0000;0.0000
137;-0.6030;5.5793;0.0000;0.0000;0.0000
138;-0.2909;5.5794;0.0000;0.0000;0.0000
139;0.0212;5.5796;0.0000;0.0000;0.0000
140;0.3333;5.5797;0.0000;0.0000;0.0000
141;0.6455;5.5799;0.0000;0.0000;0.0000
142;0.9576;5.5801;0.0000;0.0000;0.0000
143;1.2697;5.5802;0.0000;0.0000;0.0000
144;1.5818;5.5804;0.0000;0.0000;0.0000
145;1.8939;5.5805;0.0000;0.0000;0.0000
146;2.2059;5.5807;0.0000;0.0000;0.0000
147;2.5170;5.5810;0.0000;0.0000;0.0000
148;2.8251;5.5816;0.0000;0.0000;0.0000
149;3.1248;5.5828;0.0000;0.0000;0.0000
150;3.4056;5.5852;0.0000;0.0000;0.0000
151;3.6480;5.5773;0.0000;0.0000;0.0000
152;-4.4242;5.3035;0.0000;0.0000;0.0000
153;-4.1501;5.3020;0.0000;0.0000;0.0000
154;-3.8574;5.2977;0.0000;0.0000;0.0000
155;-3.5543;5.2963;0.0000;0.0000;0.0000
156;-3.2461;5.2960;0.0000;0.0000;0.0000
157;-2.9356;5.2959;0.0000;0.0000;0.0000
158;-2.6242;5.2959;0.0000;0.0000;0.0000
159;-2.3124;5.2960;0.0000;0.0000;0.0000
160;-2.0004;5.2961;0.0000;0.0000;0.0000
161;-1.6885;5.2962;0.0000;0.0000;0.0000
162;-1.3765;5.2963;0.0000;0.0000;0.0000
163;-1.0645;5.2964;0.0000;0.0000;0.0000
164;-0.7525;5.2965;0.0000;0.0000;0.0000
165;-0.4405;5.2966;0.0000;0.0000;0.0000
166;-0.1285;5.2967;0.0000;0.0000;0.0000
167;0.1836;5.2968;0.0000;0.0000;0.0000
168;0.4956;5.2969;0.0000;0.0000;0.0000
169;0.8076;5.2970;0.0000;0.0000;0.0000
170;1.1196;5.2971;0.0000;0.0000;0.0000
171;1.4316;5.2972;0.0000;0.0000;0.0000
172;1.7436;5.2973;0.0000;0.0000;0.0000
173;2.0555;5.2974;0.0000;0.0000;0.0000
174;2.3670;5.2975;0.0000;0.0000;0.0000
175;2.6769;5.2977;0.0000;0.0000;0.0000
176;2.9823;5.2981;0.0000;0.0000;0.0000
177;3.2801;5.2986;0.0000;0.0000;0.0000
178;3.5720;5.3003;0.0000;0.0000;0.0000
179;-4.3052;5.0296;0.0000;0.0000;0.0000
180;-4.0055;5.0199;0.0000;0.0000;0.0000
181;-3.7036;5.0173;0.0000;0.0000;0.0000
182;-3.3972;5.0170;0.0000;0.0000;0.0000
183;-3.0878;5.0170;0.0000;0.0000;0.0000
184;-2.7769;5.0170;0.0000;0.0000;0.0000
185;-2.4654;5.0171;0.0000;0.0000;0.0000
186;-2.1535;5.0171;0.0000;0.0000;0.0000
187;-1.8416;5.0172;0.0000;0.0000;0.0000
188;-1.5297;5.0172;0.0000;0.0000;0.0000
189;-1.2177;5.0173;0.0000;0.0000;0.0000
190;-0.9058;5.0174;0.0000;0.0000;0.0000
191;-0.5938;5.0174;0.0000;0.0000;0.0000
192;-0.2819;5.0175;0.0000;0.0000;0.0000
193;0.0301;5.0175;0.0000;0.0000;0.0000
194;0.3420;5.0176;0.0000;0.0000;0.0000
195;0.6540;5.0177;0.0000;0.0000;0.0000
196;0.9660;5.0177;0.0000;0.0000;0.0000
197;1.2779;5.0178;0.0000;0.0000;0.0000
198;1.5899;5.0178;0.0000;0.0000;0.0000
199;1.9018;5.0179;0.0000;0.0000;0.0000
200;2.2135;5.0179;0.0000;0.0000;0.0000
201;2.5241;5.0179;0.0000;0.0000;0.0000
202;2.8309;5.0180;0.0000;0.0000;0.0000
203;3.1280;5.0182;0.0000;0.0000;0.0000
204;3.4060;5.0158;0.0000;0.0000;0.0000
205;3.6454;5.0165;0.0000;0.0000;0.0000
206;-4.3983;4.7714;0.0000;0.0000;0.0000
207;-4.1389;4.7455;0.0000;0.0000;0.0000
208;-3.8502;4.7410;0.0000;0.0000;0.0000
209;-3.5487;4.7408;0.0000;0.0000;0.0000
210;-3.2414;4.7410;0.0000;0.0000;0.0000
211;-2.9314;4.7412;0.0000;0.0000;0.0000
212;-2.6202;4.7413;0.0000;0.0000;0.0000
213;-2.3085;4.7413;0.0000;0.0000;0.0000
214;-1.9967;4.7414;0.0000;0.0000;0.0000
215;-1.6848;4.7414;0.0000;0.0000;0.0000
216;-1.3728;4.7414;0.0000;0.0000;0.0000
217;-1.0609;4.7415;0.0000;0.0000;0.0000
218;-0.7489;4.7415;0.0000;0.0000;0.0000
219;-0.4370;4.7415;0.0000;0.0000;0.0000
220;-0.1251;4.7416;0.0000;0.0000;0.0000
221;0.1869;4.7416;0.0000;0.0000;0.0000
222;0.4988;4.7416;0.0000;0.0000;0.0000
223;0.8108;4.7417;0.0000;0.0000;0.0000
224;1.1227;4.7417;0.0000;0.0000;0.0000
225;1.4347;4.7417;0.0000;0.0000;0.0000
226;1.7466;4.7418;0.0000;0.0000;0.0000
227;2.0584;4.7418;0.0000;0.0000;0.0000
228;2.3697;4.7417;0.0000;0.0000;0.0000
229;2.6789;4.7417;0.0000;0.0000;0.0000
230;2.9828;4.7418;0.0000;0.0000;0.0000
231;3.2785;4.7417;0.0000;0.0000;0.0000
232;3.5710;4.7303;0.0000;0.0000;0.0000
233;-4.3229;4.4814;0.0000;0.0000;0.0000
234;-4.0111;4.4684;0.0000;0.0000;0.0000
235;-3.7043;4.4670;0.0000;0.0000;0.0000
236;-3.3963;4.4674;0.0000;0.0000;0.0000
237;-3.0866;4.4677;0.0000;0.0000;0.0000
238;-2.7757;4.4678;0.0000;0.0000;0.0000
239;-2.4641;4.4679;0.0000;0.0000;0.0000
240;-2.1524;4.4679;0.0000;0.0000;0.0000
241;-1.8405;4.4679;0.0000;0.0000;0.0000
242;-1.5286;4.4680;0.0000;0.0000;0.0000
243;-1.2166;4.4680;0.0000;0.0000;0.0000
244;-0.9047;4.4680;0.0000;0.0000;0.0000
245;-0.5927;4.4680;0.0000;0.0000;0.0000
246;-0.2808;4.4680;0.0000;0.0000;0.0000
247;0.0311;4.4680;0.0000;0.0000;0.0000
248;0.3431;4.4681;0.0000;0.0000;0.0000
249;0.6550;4.4681;0.0000;0.0000;0.0000
250;0.9670;4.4681;0.0000;0.0000;0.0000
251;1.2789;4.4681;0.0000;0.0000;0.0000
252;1.5908;4.4681;0.0000;0.0000;0.0000
253;1.9027;4.4681;0.0000;0.0000;0.0000
254;2.2143;4.4681;0.0000;0.0000;0.0000
255;2.5244;4.4680;0.0000;0.0000;0.0000
256;2.8298;4.4679;0.0000;0.0000;0.0000
257;3.1234;4.4683;0.0000;0.0000;0.0000
258;3.3953;4.4684;0.0000;0.0000;0.0000
259;3.6352;4.4386;0.0000;0.0000;0.0000
260;-4.4079;4.1989;0.0000;0.0000;0.0000
261;-4.1478;4.1980;0.0000;0.0000;0.0000
262;-3.8539;4.1956;0.0000;0.0000;0.0000
263;-3.5498;4.1954;0.0000;0.0000;0.0000
264;-3.2415;4.1957;0.0000;0.0000;0.0000
265;-2.9312;4.1959;0.0000;0.0000;0.0000
266;-2.6199;4.1960;0.0000;0.0000;0.0000
267;-2.3082;4.1960;0.0000;0.0000;0.0000
268;-1.9964;4.1960;0.0000;0.0000;0.0000
269;-1.6845;4.1960;0.0000;0.0000;0.0000
270;-1.3725;4.1960;0.0000;0.0000;0.0000
271;-1.0606;4.1961;0.0000;0.0000;0.0000
272;-0.7487;4.1961;0.0000;0.0000;0.0000
273;-0.4367;4.1961;0.0000;0.0000;0.0000
274;-0.1248;4.1961;0.0000;0.0000;0.0000
275;0.1872;4.1961;0.0000;0.0000;0.0000
276;0.4991;4.1961;0.0000;0.0000;0.0000
277;0.8110;4.1961;0.0000;0.0000;0.0000
278;1.1230;4.1961;0.0000;0.0000;0.0000
279;1.4349;4.1961;0.0000;0.0000;0.0000
280;1.7468;4.1961;0.0000;0.0000;0.0000
281;2.0586;4.1961;0.0000;0.0000;0.0000
282;2.3696;4.1960;0.0000;0.0000;0.0000
283;2.6778;4.1955;0.0000;0.0000;0.0000
284;2.9785;4.1949;0.0000;0.0000;0.0000
285;3.2653;4.1951;0.0000;0.0000;0.0000
286;3.5401;4.1970;0.0000;0.0000;0.0000
287;-4.3254;3.9208;0.0000;0.0000;0.0000
288;-4.0127;3.9256;0.0000;0.0000;0.0000
289;-3.7050;3.9249;0.0000;0.0000;0.0000
290;-3.3966;3.9247;0.0000;0.0000;0.0000
291;-3.0866;3.9248;0.0000;0.0000;0.0000
292;-2.7756;3.9249;0.0000;0.0000;0.0000
293;-2.4641;3.9250;0.0000;0.0000;0.0000
294;-2.1523;3.9250;0.0000;0.0000;0.0000
295;-1.8404;3.9250;0.0000;0.0000;0.0000
296;-1.5285;3.9250;0.0000;0.0000;0.0000
297;-1.2166;3.9250;0.0000;0.0000;0.0000
298;-0.9046;3.9250;0.0000;0.0000;0.0000
299;-0.5927;3.9250;0.0000;0.0000;0.0000
300;-0.2807;3.9250;0.0000;0.0000;0.0000
301;0.0312;3.9250;0.0000;0.0000;0.0000
302;0.3431;3.9250;0.0000;0.0000;0.0000
303;0.6551;3.9250;0.0000;0.0000;0.0000
304;0.9670;3.9250;0.0000;0.0000;0.0000
305;1.2789;3.9250;0.0000;0.0000;0.0000
306;1.5909;3.9250;0.0000;0.0000;0.0000
307;1.9028;3.9250;0.0000;0.0000;0.0000
308;2.2143;3.9249;0.0000;0.0000;0.0000
309;2.5242;3.9245;0.0000;0.0000;0.0000
310;2.8292;3.9234;0.0000;0.0000;0.0000
311;3.1219;3.9219;0.0000;0.0000;0.0000
312;3.3930;3.9245;0.0000;0.0000;0.0000
313;3.6337;3.9589;0.0000;0.0000;0.0000
314;-4.3999;3.6372;0.0000;0.0000;0.0000
315;-4.1402;3.6540;0.0000;0.0000;0.0000
316;-3.8507;3.6547;0.0000;0.0000;0.0000
317;-3.5487;3.6543;0.0000;0.0000;0.0000
318;-3.2411;3.6543;0.0000;0.0000;0.0000
319;-2.9310;3.6543;0.0000;0.0000;0.0000
320;-2.6198;3.6544;0.0000;0.0000;0.0000
321;-2.3082;3.6544;0.0000;0.0000;0.0000
322;-1.9964;3.6544;0.0000;0.0000;0.0000
323;-1.6845;3.6544;0.0000;0.0000;0.0000
324;-1.3725;3.6544;0.0000;0.0000;0.0000
325;-1.0606;3.6544;0.0000;0.0000;0.0000
326;-0.7487;3.6544;0.0000;0.0000;0.0000
327;-0.4367;3.6544;0.0000;0.0000;0.0000
328;-0.1248;3.6544;0.0000;0.0000;0.0000
329;0.1872;3.6544;0.0000;0.0000;0.0000
330;0.4991;3.6544;0.0000;0.0000;0.0000
331;0.8110;3.6544;0.0000;0.0000;0.0000
332;1.1230;3.6544;0.0000;0.0000;0.0000
333;1.4349;3.6544;0.0000;0.0000;0.0000
334;1.7468;3.6544;0.0000;0.0000;0.0000
335;2.0586;3.6544;0.0000;0.0000;0.0000
336;2.3697;3.6541;0.0000;0.0000;0.0000
337;2.6786;3.6533;0.0000;0.0000;0.0000
338;2.9819;3.6517;0.0000;0.0000;0.0000
339;3.2768;3.6522;0.0000;0.0000;0.0000
340;3.5681;3.6704;0.0000;0.0000;0.0000
341;-4.3048;3.3786;0.0000;0.0000;0.0000
342;-4.0038;3.3830;0.0000;0.0000;0.0000
343;-3.7017;3.3836;0.0000;0.0000;0.0000
344;-3.3954;3.3838;0.0000;0.0000;0.0000
345;-3.0862;3.3839;0.0000;0.0000;0.0000
346;-2.7755;3.3840;0.0000;0.0000;0.0000
347;-2.4640;3.3841;0.0000;0.0000;0.0000
348;-2.1523;3.3841;0.0000;0.0000;0.0000
349;-1.8404;3.3841;0.0000;0.0000;0.0000
350;-1.5285;3.3841;0.0000;0.0000;0.0000
351;-1.2166;3.3841;0.0000;0.0000;0.0000
352;-0.9046;3.3841;0.0000;0.0000;0.0000
353;-0.5927;3.3841;0.0000;0.0000;0.0000
354;-0.2807;3.3841;0.0000;0.0000;0.0000
355;0.0312;3.3841;0.0000;0.0000;0.0000
356;0.3431;3.3841;0.0000;0.0000;0.0000
357;0.6551;3.3841;0.0000;0.0000;0.0000
358;0.9670;3.3841;0.0000;0.0000;0.0000
359;1.2789;3.3841;0.0000;0.0000;0.0000
360;1.5909;3.3841;0.0000;0.0000;0.0000
361;1.9028;3.3841;0.0000;0.0000;0.0000
362;2.2143;3.3839;0.0000;0.0000;0.0000
363;2.5247;3.3835;0.0000;0.0000;0.0000
364;2.8311;3.3824;0.0000;0.0000;0.0000
365;3.1282;3.3816;0.0000;0.0000;0.0000
366;3.4068;3.3862;0.0000;0.0000;0.0000
367;3.6457;3.3912;0.0000;0.0000;0.0000
368;-4.4260;3.1180;0.0000;0.0000;0.0000
369;-4.1445;3.1140;0.0000;0.0000;0.0000
370;-3.8508;3.1131;0.0000;0.0000;0.0000
371;-3.5483;3.1133;0.0000;0.0000;0.0000
372;-3.2409;3.1136;0.0000;0.0000;0.0000
373;-2.9309;3.1137;0.0000;0.0000;0.0000
374;-2.6198;3.1138;0.0000;0.0000;0.0000
375;-2.3082;3.1138;0.0000;0.0000;0.0000
376;-1.9963;3.1138;0.0000;0.0000;0.0000
377;-1.6844;3.1139;0.0000;0.0000;0.0000
378;-1.3725;3.1139;0.0000;0.0000;0.0000
379;-1.0606;3.1139;0.0000;0.0000;0.0000
380;-0.7487;3.1139;0.0000;0.0000;0.0000
381;-0.4367;3.1139;0.0000;0.0000;0.0000
382;-0.1248;3.1139;0.0000;0.0000;0.0000
383;0.1872;3.1139;0.0000;0.0000;0.0000
384;0.4991;3.1139;0.0000;0.0000;0.0000
385;0.8110;3.1139;0.0000;0.0000;0.0000
386;1.1230;3.1139;0.0000;0.0000;0.0000
387;1.4349;3.1139;0.0000;0.0000;0.0000
388;1.7468;3.1138;0.0000;0.0000;0.0000
389;2.0586;3.1138;0.0000;0.0000;0.0000
390;2.3699;3.1136;0.0000;0.0000;0.0000
391;2.6792;3.1130;0.0000;0.0000;0.0000
392;2.9840;3.1124;0.0000;0.0000;0.0000
393;3.2816;3.1126;0.0000;0.0000;0.0000
394;3.5734;3.1144;0.0000;0.0000;0.0000
395;-4.3041;2.8527;0.0000;0.0000;0.0000
396;-4.0033;2.8437;0.0000;0.0000;0.0000
397;-3.7013;2.8428;0.0000;0.0000;0.0000
398;-3.3952;2.8432;0.0000;0.0000;0.0000
399;-3.0861;2.8434;0.0000;0.0000;0.0000
400;-2.7755;2.8436;0.0000;0.0000;0.0000
401;-2.4640;2.8436;0.0000;0.0000;0.0000
402;-2.1523;2.8437;0.0000;0.0000;0.0000
403;-1.8404;2.8437;0.0000;0.0000;0.0000
404;-1.5285;2.8437;0.0000;0.0000;0.0000
405;-1.2166;2.8437;0.0000;0.0000;0.0000
406;-0.9046;2.8437;0.0000;0.0000;0.0000
407;-0.5927;2.8437;0.0000;0.0000;0.0000
408;-0.2807;2.8437;0.0000;0.0000;0.0000
409;0.0312;2.8437;0.0000;0.0000;0.0000
410;0.3431;2.8437;0.0000;0.0000;0.0000
411;0.6551;2.8437;0.0000;0.0000;0.0000
412;0.9670;2.8437;0.0000;0.0000;0.0000
413;1.2789;2.8437;0.0000;0.0000;0.0000
414;1.5909;2.8437;0.0000;0.0000;0.0000
415;1.9028;2.8436;0.0000;0.0000;0.0000
416;2.2144;2.8436;0.0000;0.0000;0.0000
417;2.5247;2.8433;0.0000;0.0000;0.0000
418;2.8310;2.8430;0.0000;0.0000;0.0000
419;3.1275;2.8429;0.0000;0.0000;0.0000
420;3.4045;2.8397;0.0000;0.0000;0.0000
421;3.6412;2.8349;0.0000;0.0000;0.0000
422;-4.3983;2.5973;0.0000;0.0000;0.0000
423;-4.1390;2.5750;0.0000;0.0000;0.0000
424;-3.8497;2.5720;0.0000;0.0000;0.0000
425;-3.5481;2.5725;0.0000;0.0000;0.0000
426;-3.2408;2.5731;0.0000;0.0000;0.0000
427;-2.9309;2.5733;0.0000;0.0000;0.0000
428;-2.6198;2.5734;0.0000;0.0000;0.0000
429;-2.3082;2.5735;0.0000;0.0000;0.0000
430;-1.9963;2.5735;0.0000;0.0000;0.0000
431;-1.6844;2.5735;0.0000;0.0000;0.0000
432;-1.3725;2.5735;0.0000;0.0000;0.0000
433;-1.0606;2.5735;0.0000;0.0000;0.0000
434;-0.7487;2.5735;0.0000;0.0000;0.0000
435;-0.4367;2.5735;0.0000;0.0000;0.0000
436;-0.1248;2.5735;0.0000;0.0000;0.0000
437;0.1872;2.5735;0.0000;0.0000;0.0000
438;0.4991;2.5735;0.0000;0.0000;0.0000
439;0.8110;2.5735;0.0000;0.0000;0.0000
440;1.1230;2.5735;0.0000;0.0000;0.0000
441;1.4349;2.5735;0.0000;0.0000;0.0000
442;1.7468;2.5735;0.0000;0.0000;0.0000
443;2.0586;2.5735;0.0000;0.0000;0.0000
444;2.3698;2.5733;0.0000;0.0000;0.0000
445;2.6785;2.5731;0.0000;0.0000;0.0000
446;2.9814;2.5730;0.0000;0.0000;0.0000
447;3.2749;2.5724;0.0000;0.0000;0.0000
448;3.5650;2.5563;0.0000;0.0000;0.0000
449;-4.3230;2.3125;0.0000;0.0000;0.0000
450;-4.0111;2.3025;0.0000;0.0000;0.0000
451;-3.7041;2.3021;0.0000;0.0000;0.0000
452;-3.3961;2.3027;0.0000;0.0000;0.0000
453;-3.0864;2.3031;0.0000;0.0000;0.0000
454;-2.7755;2.3032;0.0000;0.0000;0.0000
455;-2.4640;2.3033;0.0000;0.0000;0.0000
456;-2.1523;2.3033;0.0000;0.0000;0.0000
457;-1.8404;2.3034;0.0000;0.0000;0.0000
458;-1.5285;2.3034;0.0000;0.0000;0.0000
459;-1.2166;2.3034;0.0000;0.0000;0.0000
460;-0.9046;2.3034;0.0000;0.0000;0.0000
461;-0.5927;2.3034;0.0000;0.0000;0.0000
462;-0.2807;2.3034;0.0000;0.0000;0.0000
463;0.0312;2.3034;0.0000;0.0000;0.0000
464;0.3431;2.3034;0.0000;0.0000;0.0000
465;0.6551;2.3034;0.0000;0.0000;0.0000
466;0.9670;2.3034;0.0000;0.0000;0.0000
467;1.2789;2.3034;0.0000;0.0000;0.0000
468;1.5909;2.3034;0.0000;0.0000;0.0000
469;1.9028;2.3033;0.0000;0.0000;0.0000
470;2.2143;2.3033;0.0000;0.0000;0.0000
471;2.5242;2.3030;0.0000;0.0000;0.0000
472;2.8291;2.3026;0.0000;0.0000;0.0000
473;3.1213;2.3025;0.0000;0.0000;0.0000
474;3.3912;2.3022;0.0000;0.0000;0.0000
475;3.6309;2.2665;0.0000;0.0000;0.0000
476;-4.4075;2.0372;0.0000;0.0000;0.0000
477;-4.1471;2.0328;0.0000;0.0000;0.0000
478;-3.8533;2.0324;0.0000;0.0000;0.0000
479;-3.5494;2.0326;0.0000;0.0000;0.0000
480;-3.2413;2.0329;0.0000;0.0000;0.0000
481;-2.9311;2.0331;0.0000;0.0000;0.0000
482;-2.6198;2.0331;0.0000;0.0000;0.0000
483;-2.3082;2.0332;0.0000;0.0000;0.0000
484;-1.9964;2.0332;0.0000;0.0000;0.0000
485;-1.6845;2.0332;0.0000;0.0000;0.0000
486;-1.3725;2.0332;0.0000;0.0000;0.0000
487;-1.0606;2.0332;0.0000;0.0000;0.0000
488;-0.7487;2.0332;0.0000;0.0000;0.0000
489;-0.4367;2.0332;0.0000;0.0000;0.0000
490;-0.1248;2.0332;0.0000;0.0000;0.0000
491;0.1872;2.0332;0.0000;0.0000;0.0000
492;0.4991;2.0332;0.0000;0.0000;0.0000
493;0.8110;2.0332;0.0000;0.0000;0.0000
494;1.1230;2.0332;0.0000;0.0000;0.0000
495;1.4349;2.0332;0.0000;0.0000;0.0000
496;1.7468;2.0332;0.0000;0.0000;0.0000
497;2.0586;2.0331;0.0000;0.0000;0.0000
498;2.3696;2.0329;0.0000;0.0000;0.0000
499;2.6776;2.0324;0.0000;0.0000;0.0000
500;2.9779;2.0313;0.0000;0.0000;0.0000
501;3.2638;2.0308;0.0000;0.0000;0.0000
502;3.5348;2.0348;0.0000;0.0000;0.0000
503;-4.3231;1.7540;0.0000;0.0000;0.0000
504;-4.0111;1.7624;0.0000;0.0000;0.0000
505;-3.7041;1.7628;0.0000;0.0000;0.0000
506;-3.3962;1.7628;0.0000;0.0000;0.0000
507;-3.0864;1.7629;0.0000;0.0000;0.0000
508;-2.7755;1.7630;0.0000;0.0000;0.0000
509;-2.4640;1.7630;0.0000;0.0000;0.0000
510;-2.1523;1.7630;0.0000;0.0000;0.0000
511;-1.8404;1.7631;0.0000;0.0000;0.0000
512;-1.5285;1.7631;0.0000;0.0000;0.0000
513;-1.2166;1.7631;0.0000;0.0000;0.0000
514;-0.9046;1.7631;0.0000;0.0000;0.0000
515;-0.5927;1.7631;0.0000;0.0000;0.0000
516;-0.2807;1.7631;0.0000;0.0000;0.0000
517;0.0312;1.7631;0.0000;0.0000;0.0000
518;0.3431;1.7631;0.0000;0.0000;0.0000
519;0.6551;1.7631;0.0000;0.0000;0.0000
520;0.9670;1.7631;0.0000;0.0000;0.0000
521;1.2789;1.7631;0.0000;0.0000;0.0000
522;1.5909;1.7631;0.0000;0.0000;0.0000
523;1.9027;1.7630;0.0000;0.0000;0.0000
524;2.2143;1.7629;0.0000;0.0000;0.0000
525;2.5242;1.7624;0.0000;0.0000;0.0000
526;2.8292;1.7611;0.0000;0.0000;0.0000
527;3.1225;1.7594;0.0000;0.0000;0.0000
528;3.3956;1.7616;0.0000;0.0000;0.0000
529;3.6377;1.8102;0.0000;0.0000;0.0000
530;-4.3968;1.4658;0.0000;0.0000;0.0000
531;-4.1386;1.4895;0.0000;0.0000;0.0000
532;-3.8496;1.4925;0.0000;0.0000;0.0000
533;-3.5481;1.4927;0.0000;0.0000;0.0000
534;-3.2409;1.4927;0.0000;0.0000;0.0000
535;-2.9309;1.4928;0.0000;0.0000;0.0000
536;-2.6198;1.4929;0.0000;0.0000;0.0000
537;-2.3082;1.4929;0.0000;0.0000;0.0000
538;-1.9963;1.4929;0.0000;0.0000;0.0000
539;-1.6844;1.4929;0.0000;0.0000;0.0000
540;-1.3725;1.4929;0.0000;0.0000;0.0000
541;-1.0606;1.4929;0.0000;0.0000;0.0000
542;-0.7487;1.4929;0.0000;0.0000;0.0000
543;-0.4367;1.4929;0.0000;0.0000;0.0000
544;-0.1248;1.4929;0.0000;0.0000;0.0000
545;0.1872;1.4929;0.0000;0.0000;0.0000
546;0.4991;1.4929;0.0000;0.0000;0.0000
547;0.8110;1.4929;0.0000;0.0000;0.0000
548;1.1230;1.4929;0.0000;0.0000;0.0000
549;1.4349;1.4929;0.0000;0.0000;0.0000
550;1.7468;1.4929;0.0000;0.0000;0.0000
551;2.0586;1.4928;0.0000;0.0000;0.0000
552;2.3697;1.4925;0.0000;0.0000;0.0000
553;2.6787;1.4915;0.0000;0.0000;0.0000
554;2.9822;1.4896;0.0000;0.0000;0.0000
555;3.2771;1.4904;0.0000;0.0000;0.0000
556;3.5691;1.5088;0.0000;0.0000;0.0000
557;-4.3031;1.2101;0.0000;0.0000;0.0000
558;-4.0028;1.2202;0.0000;0.0000;0.0000
559;-3.7011;1.2219;0.0000;0.0000;0.0000
560;-3.3951;1.2224;0.0000;0.0000;0.0000
561;-3.0861;1.2226;0.0000;0.0000;0.0000
562;-2.7754;1.2227;0.0000;0.0000;0.0000
563;-2.4640;1.2227;0.0000;0.0000;0.0000
564;-2.1523;1.2228;0.0000;0.0000;0.0000
565;-1.8404;1.2228;0.0000;0.0000;0.0000
566;-1.5285;1.2228;0.0000;0.0000;0.0000
567;-1.2166;1.2228;0.0000;0.0000;0.0000
568;-0.9046;1.2228;0.0000;0.0000;0.0000
569;-0.5927;1.2228;0.0000;0.0000;0.0000
570;-0.2807;1.2228;0.0000;0.0000;0.0000
571;0.0312;1.2228;0.0000;0.0000;0.0000
572;0.3431;1.2228;0.0000;0.0000;0.0000
573;0.6551;1.2228;0.0000;0.0000;0.0000
574;0.9670;1.2228;0.0000;0.0000;0.0000
575;1.2789;1.2228;0.0000;0.0000;0.0000
576;1.5909;1.2228;0.0000;0.0000;0.0000
577;1.9028;1.2227;0.0000;0.0000;0.0000
578;2.2144;1.2226;0.0000;0.0000;0.0000
579;2.5248;1.2219;0.0000;0.0000;0.0000
580;2.8316;1.2200;0.0000;0.0000;0.0000
581;3.1287;1.2178;0.0000;0.0000;0.0000
582;3.4049;1.2238;0.0000;0.0000;0.0000
583;3.6432;1.2356;0.0000;0.0000;0.0000
584;-4.4248;0.9428;0.0000;0.0000;0.0000
585;-4.1436;0.9494;0.0000;0.0000;0.0000
586;-3.8502;0.9511;0.0000;0.0000;0.0000
587;-3.5481;0.9519;0.0000;0.0000;0.0000
588;-3.2408;0.9523;0.0000;0.0000;0.0000
589;-2.9309;0.9525;0.0000;0.0000;0.0000
590;-2.6198;0.9526;0.0000;0.0000;0.0000
591;-2.3082;0.9526;0.0000;0.0000;0.0000
592;-1.9963;0.9526;0.0000;0.0000;0.0000
593;-1.6844;0.9526;0.0000;0.0000;0.0000
594;-1.3725;0.9526;0.0000;0.0000;0.0000
595;-1.0606;0.9526;0.0000;0.0000;0.0000
596;-0.7487;0.9526;0.0000;0.0000;0.0000
597;-0.4367;0.9526;0.0000;0.0000;0.0000
598;-0.1248;0.9526;0.0000;0.0000;0.0000
599;0.1872;0.9526;0.0000;0.0000;0.0000
600;0.4991;0.9526;0.0000;0.0000;0.0000
601;0.8110;0.9526;0.0000;0.0000;0.0000
602;1.1230;0.9526;0.0000;0.0000;0.0000
603;1.4349;0.9526;0.0000;0.0000;0.0000
604;1.7468;0.9526;0.0000;0.0000;0.0000
605;2.0587;0.9525;0.0000;0.0000;0.0000
606;2.3702;0.9521;0.0000;0.0000;0.0000
607;2.6806;0.9507;0.0000;0.0000;0.0000
608;2.9881;0.9471;0.0000;0.0000;0.0000
609;3.2890;0.9444;0.0000;0.0000;0.0000
610;3.5782;0.9534;0.0000;0.0000;0.0000
611;-4.3036;0.6844;0.0000;0.0000;0.0000
612;-4.0030;0.6808;0.0000;0.0000;0.0000
613;-3.7012;0.6812;0.0000;0.0000;0.0000
614;-3.3951;0.6819;0.0000;0.0000;0.0000
615;-3.0861;0.6822;0.0000;0.0000;0.0000
616;-2.7754;0.6824;0.0000;0.0000;0.0000
617;-2.4640;0.6824;0.0000;0.0000;0.0000
618;-2.1523;0.6825;0.0000;0.0000;0.0000
619;-1.8404;0.6825;0.0000;0.0000;0.0000
620;-1.5285;0.6825;0.0000;0.0000;0.0000
621;-1.2166;0.6825;0.0000;0.0000;0.0000
622;-0.9046;0.6825;0.0000;0.0000;0.0000
623;-0.5927;0.6825;0.0000;0.0000;0.0000
624;-0.2807;0.6825;0.0000;0.0000;0.0000
625;0.0312;0.6825;0.0000;0.0000;0.0000
626;0.3431;0.6825;0.0000;0.0000;0.0000
627;0.6551;0.6825;0.0000;0.0000;0.0000
628;0.9670;0.6825;0.0000;0.0000;0.0000
629;1.2789;0.6825;0.0000;0.0000;0.0000
630;1.5909;0.6825;0.0000;0.0000;0.0000
631;1.9028;0.6824;0.0000;0.0000;0.0000
632;2.2147;0.6823;0.0000;0.0000;0.0000
633;2.5268;0.6816;0.0000;0.0000;0.0000
634;2.8397;0.6797;0.0000;0.0000;0.0000
635;3.1559;0.6770;0.0000;0.0000;0.0000
636;3.4820;0.6851;0.0000;0.0000;0.0000
637;-4.3992;0.4254;0.0000;0.0000;0.0000
638;-4.1395;0.4102;0.0000;0.0000;0.0000
639;-3.8499;0.4101;0.0000;0.0000;0.0000
640;-3.5482;0.4112;0.0000;0.0000;0.0000
641;-3.2409;0.4118;0.0000;0.0000;0.0000
642;-2.9309;0.4121;0.0000;0.0000;0.0000
643;-2.6198;0.4122;0.0000;0.0000;0.0000
644;-2.3082;0.4123;0.0000;0.0000;0.0000
645;-1.9963;0.4123;0.0000;0.0000;0.0000
646;-1.6844;0.4123;0.0000;0.0000;0.0000
647;-1.3725;0.4123;0.0000;0.0000;0.0000
648;-1.0606;0.4123;0.0000;0.0000;0.0000
649;-0.7487;0.4123;0.0000;0.0000;0.0000
650;-0.4367;0.4123;0.0000;0.0000;0.0000
651;-0.1248;0.4123;0.0000;0.0000;0.0000
652;0.1872;0.4123;0.0000;0.0000;0.0000
653;0.4991;0.4123;0.0000;0.0000;0.0000
654;0.8110;0.4123;0.0000;0.0000;0.0000
655;1.1230;0.4123;0.0000;0.0000;0.0000
656;1.4349;0.4123;0.0000;0.0000;0.0000
657;1.7469;0.4123;0.0000;0.0000;0.0000
658;2.0588;0.4123;0.0000;0.0000;0.0000
659;2.3709;0.4121;0.0000;0.0000;0.0000
660;2.6837;0.4114;0.0000;0.0000;0.0000
661;2.9979;0.4101;0.0000;0.0000;0.0000
662;3.3133;0.4106;0.0000;0.0000;0.0000
663;3.6154;0.4306;0.0000;0.0000;0.0000
664;-4.3243;0.1440;0.0000;0.0000;0.0000
665;-4.0115;0.1400;0.0000;0.0000;0.0000
666;-3.7042;0.1408;0.0000;0.0000;0.0000
667;-3.3962;0.1415;0.0000;0.0000;0.0000
668;-3.0864;0.1419;0.0000;0.0000;0.0000
669;-2.7755;0.1421;0.0000;0.0000;0.0000
670;-2.4640;0.1421;0.0000;0.0000;0.0000
671;-2.1523;0.1422;0.0000;0.0000;0.0000
672;-1.8404;0.1422;0.0000;0.0000;0.0000
673;-1.5285;0.1422;0.0000;0.0000;0.0000
674;-1.2166;0.1422;0.0000;0.0000;0.0000
675;-0.9046;0.1422;0.0000;0.0000;0.0000
676;-0.5927;0.1422;0.0000;0.0000;0.0000
677;-0.2807;0.1422;0.0000;0.0000;0.0000
678;0.0312;0.1422;0.0000;0.0000;0.0000
679;0.3431;0.1422;0.0000;0.0000;0.0000
680;0.6551;0.1422;0.0000;0.0000;0.0000
681;0.9670;0.1422;0.0000;0.0000;0.0000
682;1.2789;0.1422;0.0000;0.0000;0.0000
683;1.5909;0.1422;0.0000;0.0000;0.0000
684;1.9029;0.1422;0.0000;0.0000;0.0000
685;2.2150;0.1421;0.0000;0.0000;0.0000
686;2.5278;0.1420;0.0000;0.0000;0.0000
687;2.8427;0.1417;0.0000;0.0000;0.0000
688;3.1626;0.1418;0.0000;0.0000;0.0000
689;3.4929;0.1406;0.0000;0.0000;0.0000
690;-4.4034;-0.1335;0.0000;0.0000;0.0000
691;-4.1455;-0.1310;0.0000;0.0000;0.0000
692;-3.8525;-0.1288;0.0000;0.0000;0.0000
693;-3.5491;-0.1285;0.0000;0.0000;0.0000
694;-3.2412;-0.1283;0.0000;0.0000;0.0000
695;-2.9310;-0.1281;0.0000;0.0000;0.0000
696;-2.6198;-0.1280;0.0000;0.0000;0.0000
697;-2.3082;-0.1280;0.0000;0.0000;0.0000
698;-1.9964;-0.1280;0.0000;0.0000;0.0000
699;-1.6845;-0.1280;0.0000;0.0000;0.0000
700;-1.3725;-0.1280;0.0000;0.0000;0.0000
701;-1.0606;-0.1280;0.0000;0.0000;0.0000
702;-0.7487;-0.1280;0.0000;0.0000;0.0000
703;-0.4367;-0.1280;0.0000;0.0000;0.0000
704;-0.1248;-0.1280;0.0000;0.0000;0.0000
705;0.1872;-0.1280;0.0000;0.0000;0.0000
706;0.4991;-0.1280;0.0000;0.0000;0.0000
707;0.8110;-0.1280;0.0000;0.0000;0.0000
708;1.1230;-0.1280;0.0000;0.0000;0.0000
709;1.4349;-0.1280;0.0000;0.0000;0.0000
710;1.7469;-0.1280;0.0000;0.0000;0.0000
711;2.0589;-0.1280;0.0000;0.0000;0.0000
712;2.3712;-0.1279;0.0000;0.0000;0.0000
713;2.6843;-0.1278;0.0000;0.0000;0.0000
714;2.9987;-0.1275;0.0000;0.0000;0.0000
715;3.3125;-0.1277;0.0000;0.0000;0.0000
716;3.6143;-0.1514;0.0000;0.0000;0.0000
717;-4.3200;-0.4133;0.0000;0.0000;0.0000
718;-4.0088;-0.3986;0.0000;0.0000;0.0000
719;-3.7030;-0.3981;0.0000;0.0000;0.0000
720;-3.3957;-0.3983;0.0000;0.0000;0.0000
721;-3.0863;-0.3982;0.0000;0.0000;0.0000
722;-2.7755;-0.3982;0.0000;0.0000;0.0000
723;-2.4640;-0.3981;0.0000;0.0000;0.0000
724;-2.1523;-0.3981;0.0000;0.0000;0.0000
725;-1.8404;-0.3981;0.0000;0.0000;0.0000
726;-1.5285;-0.3981;0.0000;0.0000;0.0000
727;-1.2166;-0.3981;0.0000;0.0000;0.0000
728;-0.9046;-0.3981;0.0000;0.0000;0.0000
729;-0.5927;-0.3981;0.0000;0.0000;0.0000
730;-0.2807;-0.3981;0.0000;0.0000;0.0000
731;0.0312;-0.3981;0.0000;0.0000;0.0000
732;0.3431;-0.3981;0.0000;0.0000;0.0000
733;0.6551;-0.3981;0.0000;0.0000;0.0000
734;0.9670;-0.3981;0.0000;0.0000;0.0000
735;1.2789;-0.3981;0.0000;0.0000;0.0000
736;1.5909;-0.3981;0.0000;0.0000;0.0000
737;1.9029;-0.3981;0.0000;0.0000;0.0000
738;2.2150;-0.3981;0.0000;0.0000;0.0000
739;2.5277;-0.3979;0.0000;0.0000;0.0000
740;2.8418;-0.3977;0.0000;0.0000;0.0000
741;3.1583;-0.3983;0.0000;0.0000;0.0000
742;3.4800;-0.4019;0.0000;0.0000;0.0000
743;-4.3939;-0.7031;0.0000;0.0000;0.0000
744;-4.1336;-0.6690;0.0000;0.0000;0.0000
745;-3.8469;-0.6679;0.0000;0.0000;0.0000
746;-3.5469;-0.6683;0.0000;0.0000;0.0000
747;-3.2404;-0.6684;0.0000;0.0000;0.0000
748;-2.9307;-0.6683;0.0000;0.0000;0.0000
749;-2.6197;-0.6683;0.0000;0.0000;0.0000
750;-2.3082;-0.6683;0.0000;0.0000;0.0000
751;-1.9963;-0.6683;0.0000;0.0000;0.0000
752;-1.6844;-0.6683;0.0000;0.0000;0.0000
753;-1.3725;-0.6683;0.0000;0.0000;0.0000
754;-1.0606;-0.6683;0.0000;0.0000;0.0000
755;-0.7487;-0.6683;0.0000;0.0000;0.0000
756;-0.4367;-0.6683;0.0000;0.0000;0.0000
757;-0.1248;-0.6683;0.0000;0.0000;0.0000
758;0.1872;-0.6683;0.0000;0.0000;0.0000
759;0.4991;-0.6683;0.0000;0.0000;0.0000
760;0.8110;-0.6683;0.0000;0.0000;0.0000
761;1.1230;-0.6683;0.0000;0.0000;0.0000
762;1.4349;-0.6683;0.0000;0.0000;0.0000
763;1.7469;-0.6683;0.0000;0.0000;0.0000
764;2.0589;-0.6682;0.0000;0.0000;0.0000
765;2.3711;-0.6682;0.0000;0.0000;0.0000
766;2.6837;-0.6681;0.0000;0.0000;0.0000
767;2.9961;-0.6687;0.0000;0.0000;0.0000
768;3.3047;-0.6731;0.0000;0.0000;0.0000
769;3.5917;-0.6565;0.0000;0.0000;0.0000
770;-4.2891;-0.9388;0.0000;0.0000;0.0000
771;-3.9959;-0.9393;0.0000;0.0000;0.0000
772;-3.6983;-0.9392;0.0000;0.0000;0.0000
773;-3.3940;-0.9388;0.0000;0.0000;0.0000
774;-3.0857;-0.9386;0.0000;0.0000;0.0000
775;-2.7753;-0.9385;0.0000;0.0000;0.0000
776;-2.4640;-0.9384;0.0000;0.0000;0.0000
777;-2.1523;-0.9384;0.0000;0.0000;0.0000
778;-1.8404;-0.9384;0.0000;0.0000;0.0000
779;-1.5285;-0.9384;0.0000;0.0000;0.0000
780;-1.2166;-0.9384;0.0000;0.0000;0.0000
781;-0.9046;-0.9384;0.0000;0.0000;0.0000
782;-0.5927;-0.9384;0.0000;0.0000;0.0000
783;-0.2807;-0.9384;0.0000;0.0000;0.0000
784;0.0312;-0.9384;0.0000;0.0000;0.0000
785;0.3431;-0.9384;0.0000;0.0000;0.0000
786;0.6551;-0.9384;0.0000;0.0000;0.0000
787;0.9670;-0.9384;0.0000;0.0000;0.0000
788;1.2790;-0.9384;0.0000;0.0000;0.0000
789;1.5909;-0.9384;0.0000;0.0000;0.0000
790;1.9029;-0.9384;0.0000;0.0000;0.0000
791;2.2151;-0.9383;0.0000;0.0000;0.0000
792;2.5279;-0.9382;0.0000;0.0000;0.0000
793;2.8428;-0.9381;0.0000;0.0000;0.0000
794;3.1636;-0.9391;0.0000;0.0000;0.0000
795;3.5025;-0.9431;0.0000;0.0000;0.0000
796;-4.3928;-1.1729;0.0000;0.0000;0.0000
797;-4.1324;-1.2092;0.0000;0.0000;0.0000
798;-3.8460;-1.2109;0.0000;0.0000;0.0000
799;-3.5465;-1.2098;0.0000;0.0000;0.0000
800;-3.2402;-1.2091;0.0000;0.0000;0.0000
801;-2.9306;-1.2088;0.0000;0.0000;0.0000
802;-2.6197;-1.2086;0.0000;0.0000;0.0000
803;-2.3081;-1.2086;0.0000;0.0000;0.0000
804;-1.9963;-1.2086;0.0000;0.0000;0.0000
805;-1.6844;-1.2086;0.0000;0.0000;0.0000
806;-1.3725;-1.2086;0.0000;0.0000;0.0000
807;-1.0606;-1.2086;0.0000;0.0000;0.0000
808;-0.7487;-1.2086;0.0000;0.0000;0.0000
809;-0.4367;-1.2086;0.0000;0.0000;0.0000
810;-0.1248;-1.2086;0.0000;0.0000;0.0000
811;0.1872;-1.2086;0.0000;0.0000;0.0000
812;0.4991;-1.2086;0.0000;0.0000;0.0000
813;0.8110;-1.2086;0.0000;0.0000;0.0000
814;1.1230;-1.2086;0.0000;0.0000;0.0000
815;1.4349;-1.2086;0.0000;0.0000;0.0000
816;1.7469;-1.2085;0.0000;0.0000;0.0000
817;2.0589;-1.2085;0.0000;0.0000;0.0000
818;2.3711;-1.2084;0.0000;0.0000;0.0000
819;2.6834;-1.2081;0.0000;0.0000;0.0000
820;2.9953;-1.2077;0.0000;0.0000;0.0000
821;3.3033;-1.2077;0.0000;0.0000;0.0000
822;3.5874;-1.2299;0.0000;0.0000;0.0000
823;-4.3194;-1.4626;0.0000;0.0000;0.0000
824;-4.0080;-1.4800;0.0000;0.0000;0.0000
825;-3.7024;-1.4806;0.0000;0.0000;0.0000
826;-3.3954;-1.4797;0.0000;0.0000;0.0000
827;-3.0861;-1.4791;0.0000;0.0000;0.0000
828;-2.7754;-1.4789;0.0000;0.0000;0.0000
829;-2.4640;-1.4788;0.0000;0.0000;0.0000
830;-2.1523;-1.4787;0.0000;0.0000;0.0000
831;-1.8404;-1.4787;0.0000;0.0000;0.0000
832;-1.5285;-1.4787;0.0000;0.0000;0.0000
833;-1.2166;-1.4787;0.0000;0.0000;0.0000
834;-0.9046;-1.4787;0.0000;0.0000;0.0000
835;-0.5927;-1.4787;0.0000;0.0000;0.0000
836;-0.2807;-1.4787;0.0000;0.0000;0.0000
837;0.0312;-1.4787;0.0000;0.0000;0.0000
838;0.3431;-1.4787;0.0000;0.0000;0.0000
839;0.6551;-1.4787;0.0000;0.0000;0.0000
840;0.9670;-1.4787;0.0000;0.0000;0.0000
841;1.2790;-1.4787;0.0000;0.0000;0.0000
842;1.5909;-1.4787;0.0000;0.0000;0.0000
843;1.9029;-1.4787;0.0000;0.0000;0.0000
844;2.2150;-1.4786;0.0000;0.0000;0.0000
845;2.5274;-1.4785;0.0000;0.0000;0.0000
846;2.8406;-1.4783;0.0000;0.0000;0.0000
847;3.1555;-1.4782;0.0000;0.0000;0.0000
848;3.4769;-1.4838;0.0000;0.0000;0.0000
849;-4.4029;-1.7424;0.0000;0.0000;0.0000
850;-4.1453;-1.7460;0.0000;0.0000;0.0000
851;-3.8523;-1.7500;0.0000;0.0000;0.0000
852;-3.5489;-1.7499;0.0000;0.0000;0.0000
853;-3.2411;-1.7494;0.0000;0.0000;0.0000
854;-2.9310;-1.7491;0.0000;0.0000;0.0000
855;-2.6198;-1.7489;0.0000;0.0000;0.0000
856;-2.3082;-1.7489;0.0000;0.0000;0.0000
857;-1.9963;-1.7489;0.0000;0.0000;0.0000
858;-1.6844;-1.7489;0.0000;0.0000;0.0000
859;-1.3725;-1.7489;0.0000;0.0000;0.0000
860;-1.0606;-1.7489;0.0000;0.0000;0.0000
861;-0.7487;-1.7489;0.0000;0.0000;0.0000
862;-0.4367;-1.7489;0.0000;0.0000;0.0000
863;-0.1248;-1.7489;0.0000;0.0000;0.0000
864;0.1872;-1.7489;0.0000;0.0000;0.0000
865;0.4991;-1.7489;0.0000;0.0000;0.0000
866;0.8110;-1.7489;0.0000;0.0000;0.0000
867;1.1230;-1.7488;0.0000;0.0000;0.0000
868;1.4349;-1.7488;0.0000;0.0000;0.0000
869;1.7469;-1.7488;0.0000;0.0000;0.0000
870;2.0589;-1.7488;0.0000;0.0000;0.0000
871;2.3710;-1.7488;0.0000;0.0000;0.0000
872;2.6833;-1.7486;0.0000;0.0000;0.0000
873;2.9952;-1.7482;0.0000;0.0000;0.0000
874;3.3052;-1.7468;0.0000;0.0000;0.0000
875;3.6115;-1.7417;0.0000;0.0000;0.0000
876;-4.3231;-2.0202;0.0000;0.0000;0.0000
877;-4.0114;-2.0181;0.0000;0.0000;0.0000
878;-3.7042;-2.0195;0.0000;0.0000;0.0000
879;-3.3962;-2.0195;0.0000;0.0000;0.0000
880;-3.0864;-2.0193;0.0000;0.0000;0.0000
881;-2.7755;-2.0191;0.0000;0.0000;0.0000
882;-2.4640;-2.0190;0.0000;0.0000;0.0000
883;-2.1523;-2.0190;0.0000;0.0000;0.0000
884;-1.8404;-2.0190;0.0000;0.0000;0.0000
885;-1.5285;-2.0190;0.0000;0.0000;0.0000
886;-1.2166;-2.0190;0.0000;0.0000;0.0000
887;-0.9046;-2.0190;0.0000;0.0000;0.0000
888;-0.5927;-2.0190;0.0000;0.0000;0.0000
889;-0.2807;-2.0190;0.0000;0.0000;0.0000
890;0.0312;-2.0190;0.0000;0.0000;0.0000
891;0.3431;-2.0190;0.0000;0.0000;0.0000
892;0.6551;-2.0190;0.0000;0.0000;0.0000
893;0.9670;-2.0190;0.0000;0.0000;0.0000
894;1.2790;-2.0190;0.0000;0.0000;0.0000
895;1.5909;-2.0190;0.0000;0.0000;0.0000
896;1.9029;-2.0190;0.0000;0.0000;0.0000
897;2.2149;-2.0190;0.0000;0.0000;0.0000
898;2.5273;-2.0189;0.0000;0.0000;0.0000
899;2.8402;-2.0188;0.0000;0.0000;0.0000
900;3.1545;-2.0172;0.0000;0.0000;0.0000
901;3.4750;-2.0055;0.0000;0.0000;0.0000
902;-4.3976;-2.3012;0.0000;0.0000;0.0000
903;-4.1389;-2.2882;0.0000;0.0000;0.0000
904;-3.8500;-2.2888;0.0000;0.0000;0.0000
905;-3.5483;-2.2894;0.0000;0.0000;0.0000
906;-3.2409;-2.2894;0.0000;0.0000;0.0000
907;-2.9309;-2.2893;0.0000;0.0000;0.0000
908;-2.6198;-2.2892;0.0000;0.0000;0.0000
909;-2.3082;-2.2892;0.0000;0.0000;0.0000
910;-1.9963;-2.2892;0.0000;0.0000;0.0000
911;-1.6844;-2.2891;0.0000;0.0000;0.0000
912;-1.3725;-2.2891;0.0000;0.0000;0.0000
913;-1.0606;-2.2891;0.0000;0.0000;0.0000
914;-0.7487;-2.2891;0.0000;0.0000;0.0000
915;-0.4367;-2.2891;0.0000;0.0000;0.0000
916;-0.1248;-2.2891;0.0000;0.0000;0.0000
917;0.1872;-2.2891;0.0000;0.0000;0.0000
918;0.4991;-2.2891;0.0000;0.0000;0.0000
919;0.8110;-2.2891;0.0000;0.0000;0.0000
920;1.1230;-2.2891;0.0000;0.0000;0.0000
921;1.4349;-2.2891;0.0000;0.0000;0.0000
922;1.7469;-2.2891;0.0000;0.0000;0.0000
923;2.0589;-2.2891;0.0000;0.0000;0.0000
924;2.3709;-2.2891;0.0000;0.0000;0.0000
925;2.6830;-2.2893;0.0000;0.0000;0.0000
926;2.9942;-2.2895;0.0000;0.0000;0.0000
927;3.2996;-2.2854;0.0000;0.0000;0.0000
928;3.5822;-2.2554;0.0000;0.0000;0.0000
929;-4.3027;-2.5615;0.0000;0.0000;0.0000
930;-4.0028;-2.5597;0.0000;0.0000;0.0000
931;-3.7012;-2.5597;0.0000;0.0000;0.0000
932;-3.3952;-2.5596;0.0000;0.0000;0.0000
933;-3.0861;-2.5595;0.0000;0.0000;0.0000
934;-2.7754;-2.5594;0.0000;0.0000;0.0000
935;-2.4640;-2.5593;0.0000;0.0000;0.0000
936;-2.1523;-2.5593;0.0000;0.0000;0.0000
937;-1.8404;-2.5593;0.0000;0.0000;0.0000
938;-1.5285;-2.5593;0.0000;0.0000;0.0000
939;-1.2166;-2.5593;0.0000;0.0000;0.0000
940;-0.9046;-2.5593;0.0000;0.0000;0.0000
941;-0.5927;-2.5593;0.0000;0.0000;0.0000
942;-0.2807;-2.5593;0.0000;0.0000;0.0000
943;0.0312;-2.5593;0.0000;0.0000;0.0000
944;0.3431;-2.5593;0.0000;0.0000;0.0000
945;0.6551;-2.5593;0.0000;0.0000;0.0000
946;0.9670;-2.5593;0.0000;0.0000;0.0000
947;1.2790;-2.5593;0.0000;0.0000;0.0000
948;1.5909;-2.5593;0.0000;0.0000;0.0000
949;1.9029;-2.5593;0.0000;0.0000;0.0000
950;2.2150;-2.5593;0.0000;0.0000;0.0000
951;2.5279;-2.5593;0.0000;0.0000;0.0000
952;2.8427;-2.5595;0.0000;0.0000;0.0000
953;3.1630;-2.5588;0.0000;0.0000;0.0000
954;3.4972;-2.5458;0.0000;0.0000;0.0000
955;-4.4223;-2.8200;0.0000;0.0000;0.0000
956;-4.1427;-2.8278;0.0000;0.0000;0.0000
957;-3.8499;-2.8299;0.0000;0.0000;0.0000
958;-3.5479;-2.8299;0.0000;0.0000;0.0000
959;-3.2407;-2.8297;0.0000;0.0000;0.0000
960;-2.9308;-2.8296;0.0000;0.0000;0.0000
961;-2.6198;-2.8295;0.0000;0.0000;0.0000
962;-2.3082;-2.8295;0.0000;0.0000;0.0000
963;-1.9963;-2.8294;0.0000;0.0000;0.0000
964;-1.6844;-2.8294;0.0000;0.0000;0.0000
965;-1.3725;-2.8294;0.0000;0.0000;0.0000
966;-1.0606;-2.8294;0.0000;0.0000;0.0000
967;-0.7487;-2.8294;0.0000;0.0000;0.0000
968;-0.4367;-2.8294;0.0000;0.0000;0.0000
969;-0.1248;-2.8294;0.0000;0.0000;0.0000
970;0.1872;-2.8294;0.0000;0.0000;0.0000
971;0.4991;-2.8294;0.0000;0.0000;0.0000
972;0.8110;-2.8294;0.0000;0.0000;0.0000
973;1.1230;-2.8294;0.0000;0.0000;0.0000
974;1.4349;-2.8294;0.0000;0.0000;0.0000
975;1.7469;-2.8294;0.0000;0.0000;0.0000
976;2.0589;-2.8294;0.0000;0.0000;0.0000
977;2.3712;-2.8294;0.0000;0.0000;0.0000
978;2.6841;-2.8293;0.0000;0.0000;0.0000
979;2.9979;-2.8289;0.0000;0.0000;0.0000
980;3.3092;-2.8285;0.0000;0.0000;0.0000
981;3.5903;-2.8286;0.0000;0.0000;0.0000
982;-4.3011;-3.0879;0.0000;0.0000;0.0000
983;-4.0017;-3.0988;0.0000;0.0000;0.0000
984;-3.7006;-3.1003;0.0000;0.0000;0.0000
985;-3.3949;-3.1001;0.0000;0.0000;0.0000
986;-3.0860;-3.0998;0.0000;0.0000;0.0000
987;-2.7754;-3.0997;0.0000;0.0000;0.0000
988;-2.4640;-3.0996;0.0000;0.0000;0.0000
989;-2.1523;-3.0996;0.0000;0.0000;0.0000
990;-1.8404;-3.0996;0.0000;0.0000;0.0000
991;-1.5285;-3.0996;0.0000;0.0000;0.0000
992;-1.2166;-3.0996;0.0000;0.0000;0.0000
993;-0.9046;-3.0996;0.0000;0.0000;0.0000
994;-0.5927;-3.0996;0.0000;0.0000;0.0000
995;-0.2807;-3.0996;0.0000;0.0000;0.0000
996;0.0312;-3.0996;0.0000;0.0000;0.0000
997;0.3431;-3.0996;0.0000;0.0000;0.0000
998;0.6551;-3.0996;0.0000;0.0000;0.0000
999;0.9670;-3.0996;0.0000;0.0000;0.0000
1000;1.2790;-3.0996;0.0000;0.0000;0.0000
1001;1.5909;-3.0996;0.0000;0.0000;0.0000
1002;1.9029;-3.0996;0.0000;0.0000;0.0000
1003;2.2151;-3.0995;0.0000;0.0000;0.0000
1004;2.5279;-3.0993;0.0000;0.0000;0.0000
1005;2.8428;-3.0987;0.0000;0.0000;0.0000
1006;3.1629;-3.0988;0.0000;0.0000;0.0000
1007;3.4963;-3.1115;0.0000;0.0000;0.0000
1008;-4.3940;-3.3423;0.0000;0.0000;0.0000
1009;-4.1363;-3.3669;0.0000;0.0000;0.0000
1010;-3.8483;-3.3711;0.0000;0.0000;0.0000
1011;-3.5475;-3.3707;0.0000;0.0000;0.0000
1012;-3.2406;-3.3702;0.0000;0.0000;0.0000
1013;-2.9308;-3.3699;0.0000;0.0000;0.0000
1014;-2.6198;-3.3698;0.0000;0.0000;0.0000
1015;-2.3082;-3.3698;0.0000;0.0000;0.0000
1016;-1.9963;-3.3698;0.0000;0.0000;0.0000
1017;-1.6844;-3.3698;0.0000;0.0000;0.0000
1018;-1.3725;-3.3697;0.0000;0.0000;0.0000
1019;-1.0606;-3.3697;0.0000;0.0000;0.0000
1020;-0.7487;-3.3697;0.0000;0.0000;0.0000
1021;-0.4367;-3.3697;0.0000;0.0000;0.0000
1022;-0.1248;-3.3697;0.0000;0.0000;0.0000
1023;0.1872;-3.3697;0.0000;0.0000;0.0000
1024;0.4991;-3.3697;0.0000;0.0000;0.0000
1025;0.8110;-3.3697;0.0000;0.0000;0.0000
1026;1.1230;-3.3697;0.0000;0.0000;0.0000
1027;1.4349;-3.3697;0.0000;0.0000;0.0000
1028;1.7469;-3.3697;0.0000;0.0000;0.0000
1029;2.0589;-3.3697;0.0000;0.0000;0.0000
1030;2.3710;-3.3695;0.0000;0.0000;0.0000
1031;2.6831;-3.3691;0.0000;0.0000;0.0000
1032;2.9940;-3.3687;0.0000;0.0000;0.0000
1033;3.2984;-3.3727;0.0000;0.0000;0.0000
1034;3.5770;-3.4029;0.0000;0.0000;0.0000
1035;-4.3190;-3.6283;0.0000;0.0000;0.0000
1036;-4.0092;-3.6406;0.0000;0.0000;0.0000
1037;-3.7032;-3.6413;0.0000;0.0000;0.0000
1038;-3.3957;-3.6408;0.0000;0.0000;0.0000
1039;-3.0863;-3.6403;0.0000;0.0000;0.0000
1040;-2.7755;-3.6401;0.0000;0.0000;0.0000
1041;-2.4640;-3.6401;0.0000;0.0000;0.0000
1042;-2.1523;-3.6400;0.0000;0.0000;0.0000
1043;-1.8404;-3.6400;0.0000;0.0000;0.0000
1044;-1.5285;-3.6400;0.0000;0.0000;0.0000
1045;-1.2166;-3.6400;0.0000;0.0000;0.0000
1046;-0.9046;-3.6400;0.0000;0.0000;0.0000
1047;-0.5927;-3.6399;0.0000;0.0000;0.0000
1048;-0.2807;-3.6399;0.0000;0.0000;0.0000
1049;0.0312;-3.6399;0.0000;0.0000;0.0000
1050;0.3431;-3.6399;0.0000;0.0000;0.0000
1051;0.6551;-3.6399;0.0000;0.0000;0.0000
1052;0.9670;-3.6399;0.0000;0.0000;0.0000
1053;1.2789;-3.6399;0.0000;0.0000;0.0000
1054;1.5909;-3.6399;0.0000;0.0000;0.0000
1055;1.9029;-3.6399;0.0000;0.0000;0.0000
1056;2.2149;-3.6398;0.0000;0.0000;0.0000
1057;2.5271;-3.6396;0.0000;0.0000;0.0000
1058;2.8397;-3.6396;0.0000;0.0000;0.0000
1059;3.1530;-3.6416;0.0000;0.0000;0.0000
1060;3.4719;-3.6538;0.0000;0.0000;0.0000
1061;-4.4054;-3.9026;0.0000;0.0000;0.0000
1062;-4.1455;-3.9103;0.0000;0.0000;0.0000
1063;-3.8524;-3.9116;0.0000;0.0000;0.0000
1064;-3.5490;-3.9115;0.0000;0.0000;0.0000
1065;-3.2411;-3.9111;0.0000;0.0000;0.0000
1066;-2.9310;-3.9108;0.0000;0.0000;0.0000
1067;-2.6198;-3.9107;0.0000;0.0000;0.0000
1068;-2.3082;-3.9106;0.0000;0.0000;0.0000
1069;-1.9963;-3.9105;0.0000;0.0000;0.0000
1070;-1.6844;-3.9105;0.0000;0.0000;0.0000
1071;-1.3725;-3.9104;0.0000;0.0000;0.0000
1072;-1.0606;-3.9104;0.0000;0.0000;0.0000
1073;-0.7486;-3.9103;0.0000;0.0000;0.0000
1074;-0.4367;-3.9103;0.0000;0.0000;0.0000
1075;-0.1248;-3.9103;0.0000;0.0000;0.0000
1076;0.1872;-3.9102;0.0000;0.0000;0.0000
1077;0.4991;-3.9102;0.0000;0.0000;0.0000
1078;0.8111;-3.9101;0.0000;0.0000;0.0000
1079;1.1230;-3.9101;0.0000;0.0000;0.0000
1080;1.4349;-3.9101;0.0000;0.0000;0.0000
1081;1.7469;-3.9100;0.0000;0.0000;0.0000
1082;2.0589;-3.9100;0.0000;0.0000;0.0000
1083;2.3709;-3.9099;0.0000;0.0000;0.0000
1084;2.6828;-3.9098;0.0000;0.0000;0.0000
1085;2.9937;-3.9103;0.0000;0.0000;0.0000
1086;3.3022;-3.9126;0.0000;0.0000;0.0000
1087;3.6066;-3.9177;0.0000;0.0000;0.0000
1088;-4.3211;-4.1881;0.0000;0.0000;0.0000
1089;-4.0098;-4.1827;0.0000;0.0000;0.0000
1090;-3.7034;-4.1829;0.0000;0.0000;0.0000
1091;-3.3956;-4.1827;0.0000;0.0000;0.0000
1092;-3.0860;-4.1824;0.0000;0.0000;0.0000
1093;-2.7752;-4.1822;0.0000;0.0000;0.0000
1094;-2.4637;-4.1820;0.0000;0.0000;0.0000
1095;-2.1519;-4.1818;0.0000;0.0000;0.0000
1096;-1.8400;-4.1817;0.0000;0.0000;0.0000
1097;-1.5281;-4.1815;0.0000;0.0000;0.0000
1098;-1.2162;-4.1814;0.0000;0.0000;0.0000
1099;-0.9043;-4.1813;0.0000;0.0000;0.0000
1100;-0.5923;-4.1811;0.0000;0.0000;0.0000
1101;-0.2804;-4.1810;0.0000;0.0000;0.0000
1102;0.0316;-4.1809;0.0000;0.0000;0.0000
1103;0.3435;-4.1807;0.0000;0.0000;0.0000
1104;0.6555;-4.1806;0.0000;0.0000;0.0000
1105;0.9674;-4.1805;0.0000;0.0000;0.0000
1106;1.2793;-4.1803;0.0000;0.0000;0.0000
1107;1.5913;-4.1802;0.0000;0.0000;0.0000
1108;1.9032;-4.1801;0.0000;0.0000;0.0000
1109;2.2153;-4.1799;0.0000;0.0000;0.0000
1110;2.5274;-4.1797;0.0000;0.0000;0.0000
1111;2.8396;-4.1797;0.0000;0.0000;0.0000
1112;3.1527;-4.1797;0.0000;0.0000;0.0000
1113;3.4720;-4.1745;0.0000;0.0000;0.0000
1114;-4.3929;-4.4759;0.0000;0.0000;0.0000
1115;-4.1341;-4.4574;0.0000;0.0000;0.0000
1116;-3.8464;-4.4567;0.0000;0.0000;0.0000
1117;-3.5454;-4.4563;0.0000;0.0000;0.0000
1118;-3.2382;-4.4558;0.0000;0.0000;0.0000
1119;-2.9283;-4.4553;0.0000;0.0000;0.0000
1120;-2.6172;-4.4549;0.0000;0.0000;0.0000
1121;-2.3056;-4.4545;0.0000;0.0000;0.0000
1122;-1.9937;-4.4542;0.0000;0.0000;0.0000
1123;-1.6818;-4.4538;0.0000;0.0000;0.0000
1124;-1.3699;-4.4535;0.0000;0.0000;0.0000
1125;-1.0579;-4.4531;0.0000;0.0000;0.0000
1126;-0.7459;-4.4528;0.0000;0.0000;0.0000
1127;-0.4340;-4.4525;0.0000;0.0000;0.0000
1128;-0.1220;-4.4521;0.0000;0.0000;0.0000
1129;0.1899;-4.4518;0.0000;0.0000;0.0000
1130;0.5019;-4.4515;0.0000;0.0000;0.0000
1131;0.8138;-4.4511;0.0000;0.0000;0.0000
1132;1.1258;-4.4508;0.0000;0.0000;0.0000
1133;1.4378;-4.4505;0.0000;0.0000;0.0000
1134;1.7497;-4.4501;0.0000;0.0000;0.0000
1135;2.0617;-4.4498;0.0000;0.0000;0.0000
1136;2.3736;-4.4495;0.0000;0.0000;0.0000
1137;2.6851;-4.4492;0.0000;0.0000;0.0000
1138;2.9950;-4.4489;0.0000;0.0000;0.0000
1139;3.2994;-4.4470;0.0000;0.0000;0.0000
1140;3.5808;-4.4227;0.0000;0.0000;0.0000
1141;-4.2914;-4.7366;0.0000;0.0000;0.0000
1142;-3.9917;-4.7352;0.0000;0.0000;0.0000
1143;-3.6898;-4.7330;0.0000;0.0000;0.0000
1144;-3.3834;-4.7317;0.0000;0.0000;0.0000
1145;-3.0742;-4.7306;0.0000;0.0000;0.0000
1146;-2.7634;-4.7298;0.0000;0.0000;0.0000
1147;-2.4518;-4.7290;0.0000;0.0000;0.0000
1148;-2.1400;-4.7283;0.0000;0.0000;0.0000
1149;-1.8281;-4.7276;0.0000;0.0000;0.0000
1150;-1.5161;-4.7269;0.0000;0.0000;0.0000
1151;-1.2041;-4.7262;0.0000;0.0000;0.0000
1152;-0.8921;-4.7255;0.0000;0.0000;0.0000
1153;-0.5801;-4.7248;0.0000;0.0000;0.0000
1154;-0.2680;-4.7241;0.0000;0.0000;0.0000
1155;0.0440;-4.7235;0.0000;0.0000;0.0000
1156;0.3560;-4.7228;0.0000;0.0000;0.0000
1157;0.6680;-4.7221;0.0000;0.0000;0.0000
1158;0.9800;-4.7214;0.0000;0.0000;0.0000
1159;1.2920;-4.7207;0.0000;0.0000;0.0000
1160;1.6040;-4.7200;0.0000;0.0000;0.0000
1161;1.9161;-4.7194;0.0000;0.0000;0.0000
1162;2.2282;-4.7187;0.0000;0.0000;0.0000
1163;2.5405;-4.7179;0.0000;0.0000;0.0000
1164;2.8536;-4.7169;0.0000;0.0000;0.0000
1165;3.1701;-4.7138;0.0000;0.0000;0.0000
1166;3.5001;-4.7034;0.0000;0.0000;0.0000
1167;-4.3939;-4.9925;0.0000;0.0000;0.0000
1168;-4.1142;-5.0131;0.0000;0.0000;0.0000
1169;-3.8172;-5.0110;0.0000;0.0000;0.0000
1170;-3.5125;-5.0089;0.0000;0.0000;0.0000
1171;-3.2038;-5.0072;0.0000;0.0000;0.0000
1172;-2.8932;-5.0058;0.0000;0.0000;0.0000
1173;-2.5816;-5.0045;0.0000;0.0000;0.0000
1174;-2.2697;-5.0033;0.0000;0.0000;0.0000
1175;-1.9577;-5.0021;0.0000;0.0000;0.0000
1176;-1.6456;-5.0009;0.0000;0.0000;0.0000
1177;-1.3335;-4.9997;0.0000;0.0000;0.0000
1178;-1.0213;-4.9985;0.0000;0.0000;0.0000
1179;-0.7092;-4.9973;0.0000;0.0000;0.0000
1180;-0.3971;-4.9962;0.0000;0.0000;0.0000
1181;-0.0849;-4.9950;0.0000;0.0000;0.0000
1182;0.2272;-4.9938;0.0000;0.0000;0.0000
1183;0.5394;-4.9926;0.0000;0.0000;0.0000
1184;0.8515;-4.9915;0.0000;0.0000;0.0000
1185;1.1636;-4.9903;0.0000;0.0000;0.0000
1186;1.4758;-4.9891;0.0000;0.0000;0.0000
1187;1.7879;-4.9879;0.0000;0.0000;0.0000
1188;2.1001;-4.9868;0.0000;0.0000;0.0000
1189;2.4121;-4.9855;0.0000;0.0000;0.0000
1190;2.7234;-4.9842;0.0000;0.0000;0.0000
1191;3.0318;-4.9822;0.0000;0.0000;0.0000
1192;3.3293;-4.9770;0.0000;0.0000;0.0000
1193;3.5891;-4.9732;0.0000;0.0000;0.0000
