# Units: length:mm angle:deg time:s strain:% 
# Stage: image-000004
stage;index;relative_time;date
"image-000004";5;4.0000;"2022-09-26T12:00:54.387"
# Name : Surface_xy
id;x;y;z;epsilon_x;epsilon_y
0;-4.5185;5.8533;0.0000;-0.0013;0.0194
1;-4.2062;5.8535;0.0000;0.0014;0.0192
2;-3.8939;5.8537;0.0000;-0.0073;0.0121
3;-3.5816;5.8538;0.0000;-0.0185;0.0032
4;-3.2694;5.8541;0.0000;-0.0361;-0.0056
5;-2.9572;5.8543;0.0000;-0.0436;-0.0135
6;-2.6450;5.8546;0.0000;-0.0145;0.0050
7;-2.3327;5.8548;0.0000;-0.0055;0.0139
8;-2.0204;5.8549;0.0000;-0.0173;-0.0218
9;-1.7082;5.8551;0.0000;-0.0106;-0.0124
10;-1.3958;5.8554;0.0000;-0.0045;0.0006
11;-1.0836;5.8557;0.0000;-0.0086;0.0060
12;-0.7713;5.8558;0.0000;-0.0211;-0.0094
13;-0.4590;5.8560;0.0000;-0.0132;-0.0158
14;-0.1467;5.8562;0.0000;-0.0027;0.0056
15;0.1656;5.8565;0.0000;-0.0189;0.0309
16;0.4778;5.8567;0.0000;-0.0224;0.0300
17;0.7900;5.8569;0.0000;-0.0186;0.0092
18;1.1023;5.8571;0.0000;-0.0152;0.0148
19;1.4146;5.8572;0.0000;-0.0283;0.0186
20;1.7268;5.8573;0.0000;-0.0161;-0.0034
21;2.0391;5.8576;0.0000;0.0100;-0.0096
22;2.3515;5.8578;0.0000;-0.0058;0.0015
23;2.6637;5.8579;0.0000;-0.0201;-0.0082
24;2.9760;5.8579;0.0000;-0.0097;-0.0111
25;3.2883;5.8581;0.0000;-0.0052;0.0240
26;3.6006;5.8583;0.0000;-0.0136;0.0324
27;3.8496;5.7493;0.0000;-0.0298;0.0136
28;3.8488;5.4370;0.0000;-0.0105;0.0146
29;3.8480;5.1246;0.0000;0.0007;0.0043
30;3.8471;4.8123;0.0000;-0.0027;0.0036
31;3.8462;4.4999;0.0000;-0.0042;0.0122
32;3.8453;4.1876;0.0000;-0.0063;0.0259
33;3.8443;3.8752;0.0000;-0.0260;0.0280
34;3.8435;3.5628;0.0000;-0.0224;0.0315
35;3.8426;3.2503;0.0000;0.0014;0.0467
36;3.8417;2.9379;0.0000;0.0019;0.0607
37;3.8408;2.6254;0.0000;-0.0123;0.0489
38;3.8399;2.3129;0.0000;-0.0125;0.0336
39;3.8389;2.0005;0.0000;-0.0267;0.0198
40;3.8380;1.6882;0.0000;-0.0376;0.0098
41;3.8370;1.3758;0.0000;-0.0338;0.0089
42;3.8361;1.0635;0.0000;-0.0520;0.0079
43;3.8351;0.7511;0.0000;-0.0509;0.0018
44;3.8342;0.4388;0.0000;-0.0295;0.0104
45;3.8333;0.1264;0.0000;-0.0423;0.0029
46;3.8324;-0.1858;0.0000;-0.0462;-0.0224
47;3.8315;-0.4980;0.0000;-0.0454;-0.0096
48;3.8306;-0.8104;0.0000;-0.0595;-0.0119
49;3.8297;-1.1226;0.0000;-0.0602;-0.0203
50;3.8288;-1.4349;0.0000;-0.0582;-0.0217
51;3.8280;-1.7471;0.0000;-0.0249;-0.0401
52;3.8270;-2.0593;0.0000;-0.0190;-0.0318
53;3.8261;-2.3715;0.0000;-0.0267;-0.0206
54;3.8252;-2.6838;0.0000;-0.0022;-0.0156
55;3.8243;-2.9960;0.0000;-0.0097;-0.0135
56;3.8233;-3.3083;0.0000;-0.0141;-0.0082
57;3.8224;-3.6206;0.0000;-0.0046;-0.0178
58;3.8215;-3.9329;0.0000;-0.0104;-0.0256
59;3.8205;-4.2451;0.0000;-0.0336;-0.0328
60;3.8196;-4.5573;0.0000;-0.0362;-0.0035
61;3.8187;-4.8697;0.0000;-0.0275;0.0054
62;3.8177;-5.1819;0.0000;-0.0462;0.0020
63;3.5523;-5.2542;0.0000;-0.0330;0.0124
64;3.2401;-5.2559;0.0000;-0.0207;-0.0033
65;2.9278;-5.2576;0.0000;-0.0237;-0.0223
66;2.6156;-5.2594;0.0000;-0.0278;-0.0188
67;2.3033;-5.2612;0.0000;-0.0197;0.0015
68;1.9911;-5.2630;0.0000;-0.0267;0.0015
69;1.6789;-5.2647;0.0000;-0.0381;0.0046
70;1.3667;-5.2665;0.0000;-0.0361;0.0134
71;1.0545;-5.2683;0.0000;-0.0369;0.0243
72;0.7423;-5.2701;0.0000;-0.0429;0.0213
73;0.4302;-5.2718;0.0000;-0.0477;-0.0001
74;0.1180;-5.2735;0.0000;-0.0445;-0.0024
75;-0.1942;-5.2752;0.0000;-0.0250;0.0058
76;-0.5065;-5.2770;0.0000;-0.0194;0.0171
77;-0.8187;-5.2788;0.0000;-0.0319;0.0357
78;-1.1309;-5.2805;0.0000;-0.0074;0.0519
79;-1.4432;-5.2822;0.0000;-0.0041;0.0206
80;-1.7555;-5.2839;0.0000;0.0056;0.0132
81;-2.0679;-5.2856;0.0000;0.0191;0.0328
82;-2.3803;-5.2874;0.0000;0.0157;0.0394
83;-2.6926;-5.2892;0.0000;0.0230;0.0637
84;-3.0051;-5.2909;0.0000;0.0354;0.0509
85;-3.3175;-5.2927;0.0000;0.0362;0.0551
86;-3.6299;-5.2945;0.0000;0.0395;0.0538
87;-3.9423;-5.2963;0.0000;0.0232;0.0458
88;-4.2547;-5.2979;0.0000;0.0377;0.0435
89;-4.5660;-5.2759;0.0000;0.0680;0.0106
90;-4.6163;-5.0086;0.0000;0.0333;0.0314
91;-4.6165;-4.6962;0.0000;0.0125;0.0529
92;-4.6168;-4.3837;0.0000;0.0164;0.0613
93;-4.6171;-4.0712;0.0000;0.0213;0.0589
94;-4.6173;-3.7587;0.0000;0.0316;0.0700
95;-4.6176;-3.4462;0.0000;0.0409;0.0597
96;-4.6178;-3.1337;0.0000;0.0351;0.0391
97;-4.6181;-2.8212;0.0000;0.0312;0.0539
98;-4.6183;-2.5087;0.0000;0.0188;0.0480
99;-4.6186;-2.1963;0.0000;0.0247;0.0246
100;-4.6190;-1.8839;0.0000;0.0370;0.0193
101;-4.6192;-1.5716;0.0000;0.0176;0.0088
102;-4.6196;-1.2592;0.0000;0.0192;0.0002
103;-4.6198;-0.9470;0.0000;0.0040;-0.0192
104;-4.6202;-0.6347;0.0000;-0.0132;-0.0156
105;-4.6205;-0.3224;0.0000;-0.0025;-0.0286
106;-4.6208;-0.0103;0.0000;0.0034;-0.0424
107;-4.6211;0.3019;0.0000;-0.0099;-0.0426
108;-4.6214;0.6141;0.0000;-0.0223;-0.0411
109;-4.6216;0.9263;0.0000;-0.0522;-0.0275
110;-4.6219;1.2386;0.0000;-0.0388;-0.0267
111;-4.6222;1.5508;0.0000;-0.0407;-0.0414
112;-4.6225;1.8630;0.0000;-0.0520;-0.0335
113;-4.6228;2.1752;0.0000;-0.0383;-0.0145
114;-4.6232;2.4875;0.0000;-0.0286;-0.0191
115;-4.6234;2.7998;0.0000;-0.0183;0.0020
116;-4.6237;3.1121;0.0000;-0.0224;0.0154
117;-4.6240;3.4245;0.0000;-0.0160;0.0353
118;-4.6243;3.7369;0.0000;0.0070;0.0480
119;-4.6246;4.0494;0.0000;0.0074;0.0411
120;-4.6248;4.3618;0.0000;-0.0105;0.0422
121;-4.6250;4.6743;0.0000;-0.0125;0.0421
122;-4.6252;4.9867;0.0000;-0.0181;0.0187
123;-4.6255;5.2990;0.0000;-0.0107;0.0337
124;-4.6258;5.6115;0.0000;0.0117;0.0411
125;-4.3273;5.5770;0.0000;0.0079;0.0277
126;-4.0247;5.5730;0.0000;0.0019;0.0195
127;-3.7188;5.5706;0.0000;-0.0159;0.0169
128;-3.4098;5.5698;0.0000;-0.0288;0.0061
129;-3.0991;5.5696;0.0000;-0.0387;-0.0055
130;-2.7877;5.5697;0.0000;-0.0281;0.0019
131;-2.4758;5.5697;0.0000;-0.0052;0.0155
132;-2.1637;5.5698;0.0000;-0.0118;0.0005
133;-1.8517;5.5700;0.0000;-0.0172;-0.0155
134;-1.5396;5.5701;0.0000;-0.0090;-0.0071
135;-1.2275;5.5702;0.0000;-0.0019;0.0040
136;-0.9154;5.5705;0.0000;-0.0154;0.0034
137;-0.6034;5.5705;0.0000;-0.0247;-0.0027
138;-0.2913;5.5706;0.0000;-0.0072;-0.0040
139;0.0208;5.5708;0.0000;-0.0139;0.0007
140;0.3328;5.5708;0.0000;-0.0169;0.0089
141;0.6449;5.5710;0.0000;-0.0101;0.0080
142;0.9570;5.5711;0.0000;-0.0151;0.0059
143;1.2690;5.5712;0.0000;-0.0306;0.0121
144;1.5810;5.5713;0.0000;-0.0229;0.0087
145;1.8931;5.5714;0.0000;0.0020;0.0010
146;2.2051;5.5716;0.0000;0.0054;0.0053
147;2.5162;5.5718;0.0000;-0.0159;0.0053
148;2.8243;5.5722;0.0000;-0.0193;-0.0033
149;3.1239;5.5732;0.0000;-0.0040;0.0080
150;3.4047;5.5756;0.0000;0.0005;0.0212
151;3.6471;5.5676;0.0000;-0.0109;0.0170
152;-4.4240;5.2950;0.0000;-0.0031;0.0329
153;-4.1500;5.2935;0.0000;0.0009;0.0244
154;-3.8572;5.2891;0.0000;-0.0107;0.0192
155;-3.5542;5.2877;0.0000;-0.0251;0.0172
156;-3.2461;5.2874;0.0000;-0.0316;0.0149
157;-2.9357;5.2874;0.0000;-0.0254;0.0208
158;-2.6243;5.2873;0.0000;-0.0138;0.0178
159;-2.3126;5.2874;0.0000;-0.0046;0.0049
160;-2.0006;5.2875;0.0000;-0.0141;-0.0005
161;-1.6887;5.2876;0.0000;-0.0183;-0.0045
162;-1.3768;5.2876;0.0000;-0.0084;-0.0008
163;-1.0648;5.2877;0.0000;-0.0055;0.0139
164;-0.7528;5.2878;0.0000;-0.0231;0.0186
165;-0.4409;5.2878;0.0000;-0.0166;0.0127
166;-0.1289;5.2879;0.0000;-0.0091;0.0061
167;0.1830;5.2880;0.0000;-0.0219;-0.0071
168;0.4950;5.2880;0.0000;-0.0033;-0.0086
169;0.8070;5.2881;0.0000;0.0014;0.0032
170;1.1190;5.2881;0.0000;-0.0239;0.0035
171;1.4309;5.2881;0.0000;-0.0291;0.0010
172;1.7428;5.2882;0.0000;-0.0131;0.0063
173;2.0547;5.2883;0.0000;0.0016;0.0205
174;2.3663;5.2883;0.0000;0.0020;0.0289
175;2.6762;5.2884;0.0000;-0.0141;0.0209
176;2.9815;5.2887;0.0000;-0.0148;0.0026
177;3.2792;5.2890;0.0000;0.0016;-0.0085
178;3.5712;5.2906;0.0000;-0.0024;0.0014
179;-4.3050;5.0210;0.0000;-0.0166;0.0237
180;-4.0054;5.0113;0.0000;-0.0117;0.0278
181;-3.7035;5.0087;0.0000;-0.0103;0.0239
182;-3.3971;5.0083;0.0000;-0.0267;0.0290
183;-3.0878;5.0083;0.0000;-0.0305;0.0361
184;-2.7770;5.0083;0.0000;-0.0180;0.0308
185;-2.4655;5.0084;0.0000;-0.0045;0.0145
186;-2.1537;5.0085;0.0000;-0.0079;0.0105
187;-1.8418;5.0086;0.0000;-0.0220;0.0174
188;-1.5300;5.0086;0.0000;-0.0220;0.0152
189;-1.2181;5.0086;0.0000;-0.0068;0.0139
190;-0.9061;5.0086;0.0000;-0.0112;0.0146
191;-0.5942;5.0086;0.0000;-0.0202;0.0072
192;-0.2823;5.0086;0.0000;-0.0109;0.0109
193;0.0296;5.0087;0.0000;-0.0202;0.0177
194;0.3415;5.0088;0.0000;-0.0143;0.0060
195;0.6534;5.0088;0.0000;0.0110;0.0043
196;0.9655;5.0088;0.0000;0.0058;0.0128
197;1.2774;5.0087;0.0000;-0.0175;0.0138
198;1.5893;5.0087;0.0000;-0.0185;0.0134
199;1.9011;5.0087;0.0000;-0.0131;0.0205
200;2.2128;5.0086;0.0000;0.0010;0.0310
201;2.5234;5.0086;0.0000;-0.0047;0.0370
202;2.8302;5.0086;0.0000;-0.0181;0.0319
203;3.1272;5.0087;0.0000;-0.0076;0.0065
204;3.4053;5.0062;0.0000;-0.0021;-0.0068
205;3.6446;5.0068;0.0000;-0.0044;-0.0035
206;-4.3981;4.7627;0.0000;-0.0169;0.0333
207;-4.1387;4.7368;0.0000;-0.0203;0.0393
208;-3.8501;4.7323;0.0000;-0.0032;0.0381
209;-3.5486;4.7320;0.0000;-0.0063;0.0354
210;-3.2413;4.7323;0.0000;-0.0282;0.0360
211;-2.9314;4.7325;0.0000;-0.0265;0.0340
212;-2.6203;4.7325;0.0000;-0.0168;0.0314
213;-2.3087;4.7326;0.0000;-0.0110;0.0275
214;-1.9969;4.7327;0.0000;-0.0140;0.0274
215;-1.6850;4.7327;0.0000;-0.0193;0.0278
216;-1.3732;4.7327;0.0000;-0.0129;0.0222
217;-1.0612;4.7327;0.0000;-0.0076;0.0160
218;-0.7493;4.7327;0.0000;-0.0192;0.0091
219;-0.4375;4.7327;0.0000;-0.0135;0.0022
220;-0.1256;4.7327;0.0000;-0.0047;0.0071
221;0.1864;4.7327;0.0000;-0.0112;0.0230
222;0.4983;4.7328;0.0000;0.0001;0.0253
223;0.8103;4.7327;0.0000;0.0078;0.0182
224;1.1222;4.7326;0.0000;-0.0002;0.0246
225;1.4342;4.7325;0.0000;-0.0064;0.0301
226;1.7461;4.7325;0.0000;-0.0169;0.0230
227;2.0578;4.7325;0.0000;-0.0091;0.0183
228;2.3691;4.7323;0.0000;-0.0036;0.0252
229;2.6783;4.7322;0.0000;-0.0130;0.0315
230;2.9822;4.7323;0.0000;-0.0155;0.0324
231;3.2778;4.7321;0.0000;-0.0003;0.0239
232;3.5703;4.7207;0.0000;-0.0074;0.0092
233;-4.3228;4.4726;0.0000;-0.0170;0.0447
234;-4.0111;4.4596;0.0000;-0.0149;0.0405
235;-3.7043;4.4582;0.0000;-0.0019;0.0395
236;-3.3963;4.4585;0.0000;-0.0072;0.0372
237;-3.0866;4.4588;0.0000;-0.0213;0.0396
238;-2.7758;4.4590;0.0000;-0.0278;0.0375
239;-2.4643;4.4591;0.0000;-0.0243;0.0323
240;-2.1526;4.4592;0.0000;-0.0077;0.0348
241;-1.8407;4.4592;0.0000;-0.0033;0.0338
242;-1.5288;4.4592;0.0000;-0.0200;0.0274
243;-1.2170;4.4591;0.0000;-0.0135;0.0225
244;-0.9051;4.4592;0.0000;-0.0118;0.0247
245;-0.5932;4.4592;0.0000;-0.0055;0.0305
246;-0.2812;4.4592;0.0000;0.0053;0.0261
247;0.0308;4.4591;0.0000;0.0018;0.0218
248;0.3427;4.4591;0.0000;-0.0072;0.0312
249;0.6546;4.4591;0.0000;-0.0085;0.0344
250;0.9665;4.4590;0.0000;-0.0078;0.0286
251;1.2784;4.4589;0.0000;0.0009;0.0259
252;1.5904;4.4589;0.0000;-0.0021;0.0243
253;1.9022;4.4588;0.0000;-0.0150;0.0167
254;2.2138;4.4587;0.0000;-0.0112;0.0072
255;2.5239;4.4585;0.0000;-0.0078;0.0091
256;2.8292;4.4583;0.0000;-0.0107;0.0195
257;3.1227;4.4586;0.0000;-0.0063;0.0252
258;3.3947;4.4587;0.0000;-0.0022;0.0216
259;3.6345;4.4289;0.0000;-0.0127;0.0198
260;-4.4078;4.1899;0.0000;-0.0069;0.0473
261;-4.1477;4.1891;0.0000;-0.0185;0.0508
262;-3.8539;4.1867;0.0000;-0.0149;0.0487
263;-3.5498;4.1864;0.0000;-0.0084;0.0413
264;-3.2415;4.1867;0.0000;-0.0097;0.0433
265;-2.9312;4.1869;0.0000;-0.0173;0.0446
266;-2.6200;4.1871;0.0000;-0.0262;0.0391
267;-2.3085;4.1871;0.0000;-0.0186;0.0388
268;-1.9966;4.1872;0.0000;0.0003;0.0379
269;-1.6847;4.1871;0.0000;-0.0087;0.0342
270;-1.3728;4.1871;0.0000;-0.0168;0.0322
271;-1.0609;4.1871;0.0000;-0.0118;0.0404
272;-0.7491;4.1871;0.0000;-0.0053;0.0467
273;-0.4371;4.1871;0.0000;0.0061;0.0445
274;-0.1251;4.1871;0.0000;0.0100;0.0411
275;0.1868;4.1871;0.0000;-0.0053;0.0355
276;0.4987;4.1870;0.0000;-0.0157;0.0352
277;0.8106;4.1870;0.0000;-0.0096;0.0396
278;1.1225;4.1869;0.0000;0.0008;0.0338
279;1.4345;4.1868;0.0000;0.0000;0.0179
280;1.7464;4.1868;0.0000;-0.0127;0.0167
281;2.0581;4.1867;0.0000;-0.0118;0.0197
282;2.3691;4.1865;0.0000;-0.0039;0.0113
283;2.6773;4.1859;0.0000;-0.0022;0.0084
284;2.9779;4.1852;0.0000;-0.0160;0.0130
285;3.2647;4.1853;0.0000;-0.0146;0.0182
286;3.5394;4.1872;0.0000;-0.0123;0.0246
287;-4.3253;3.9117;0.0000;-0.0040;0.0545
288;-4.0126;3.9165;0.0000;-0.0208;0.0545
289;-3.7050;3.9158;0.0000;-0.0219;0.0459
290;-3.3966;3.9157;0.0000;-0.0164;0.0486
291;-3.0867;3.9157;0.0000;-0.0089;0.0459
292;-2.7757;3.9158;0.0000;-0.0108;0.0402
293;-2.4642;3.9160;0.0000;-0.0212;0.0456
294;-2.1525;3.9160;0.0000;-0.0128;0.0474
295;-1.8407;3.9160;0.0000;-0.0099;0.0449
296;-1.5288;3.9160;0.0000;-0.0136;0.0448
297;-1.2169;3.9160;0.0000;-0.0083;0.0445
298;-0.9050;3.9159;0.0000;-0.0068;0.0436
299;-0.5931;3.9159;0.0000;0.0034;0.0399
300;-0.2811;3.9159;0.0000;0.0113;0.0372
301;0.0309;3.9159;0.0000;0.0004;0.0393
302;0.3428;3.9159;0.0000;-0.0164;0.0365
303;0.6547;3.9158;0.0000;-0.0140;0.0271
304;0.9666;3.9157;0.0000;0.0049;0.0247
305;1.2786;3.9157;0.0000;0.0021;0.0221
306;1.5905;3.9157;0.0000;-0.0091;0.0198
307;1.9023;3.9156;0.0000;-0.0034;0.0281
308;2.2138;3.9154;0.0000;-0.0044;0.0317
309;2.5238;3.9149;0.0000;-0.0038;0.0217
310;2.8287;3.9137;0.0000;-0.0161;0.0056
311;3.1214;3.9122;0.0000;-0.0204;0.0052
312;3.3924;3.9147;0.0000;-0.0168;0.0179
313;3.6330;3.9491;0.0000;-0.0153;0.0232
314;-4.3998;3.6280;0.0000;-0.0046;0.0465
315;-4.1401;3.6447;0.0000;-0.0162;0.0456
316;-3.8507;3.6455;0.0000;-0.0240;0.0469
317;-3.5487;3.6451;0.0000;-0.0268;0.0491
318;-3.2412;3.6450;0.0000;-0.0155;0.0425
319;-2.9312;3.6452;0.0000;-0.0061;0.0330
320;-2.6200;3.6452;0.0000;-0.0117;0.0352
321;-2.3084;3.6453;0.0000;-0.0125;0.0451
322;-1.9966;3.6453;0.0000;-0.0159;0.0474
323;-1.6848;3.6453;0.0000;-0.0169;0.0445
324;-1.3729;3.6453;0.0000;-0.0033;0.0427
325;-1.0609;3.6453;0.0000;-0.0042;0.0328
326;-0.7490;3.6453;0.0000;-0.0063;0.0252
327;-0.4371;3.6453;0.0000;0.0131;0.0320
328;-0.1251;3.6452;0.0000;0.0130;0.0405
329;0.1869;3.6452;0.0000;-0.0126;0.0392
330;0.4987;3.6452;0.0000;-0.0212;0.0303
331;0.8106;3.6452;0.0000;0.0002;0.0288
332;1.1226;3.6451;0.0000;0.0107;0.0349
333;1.4346;3.6450;0.0000;-0.0087;0.0396
334;1.7464;3.6450;0.0000;0.0005;0.0396
335;2.0583;3.6448;0.0000;0.0096;0.0404
336;2.3694;3.6445;0.0000;-0.0043;0.0393
337;2.6782;3.6436;0.0000;-0.0187;0.0331
338;2.9814;3.6420;0.0000;-0.0265;0.0286
339;3.2763;3.6424;0.0000;-0.0162;0.0277
340;3.5675;3.6605;0.0000;-0.0165;0.0275
341;-4.3047;3.3692;0.0000;-0.0149;0.0301
342;-4.0037;3.3737;0.0000;-0.0289;0.0329
343;-3.7018;3.3742;0.0000;-0.0345;0.0393
344;-3.3956;3.3745;0.0000;-0.0259;0.0351
345;-3.0864;3.3746;0.0000;-0.0064;0.0321
346;-2.7757;3.3748;0.0000;-0.0043;0.0376
347;-2.4643;3.3748;0.0000;-0.0121;0.0430
348;-2.1525;3.3748;0.0000;-0.0151;0.0490
349;-1.8407;3.3749;0.0000;-0.0192;0.0448
350;-1.5289;3.3749;0.0000;-0.0044;0.0285
351;-1.2169;3.3748;0.0000;-0.0018;0.0283
352;-0.9050;3.3749;0.0000;-0.0066;0.0308
353;-0.5931;3.3749;0.0000;0.0053;0.0288
354;-0.2811;3.3748;0.0000;0.0174;0.0378
355;0.0309;3.3747;0.0000;0.0041;0.0440
356;0.3428;3.3748;0.0000;-0.0136;0.0470
357;0.6547;3.3747;0.0000;-0.0071;0.0516
358;0.9666;3.3746;0.0000;0.0085;0.0541
359;1.2786;3.3745;0.0000;0.0018;0.0497
360;1.5905;3.3745;0.0000;-0.0097;0.0428
361;1.9024;3.3744;0.0000;0.0083;0.0448
362;2.2140;3.3742;0.0000;0.0041;0.0507
363;2.5243;3.3737;0.0000;-0.0073;0.0545
364;2.8307;3.3726;0.0000;-0.0225;0.0589
365;3.1278;3.3717;0.0000;-0.0223;0.0546
366;3.4063;3.3763;0.0000;-0.0163;0.0447
367;3.6451;3.3812;0.0000;-0.0098;0.0396
368;-4.4259;3.1086;0.0000;-0.0130;0.0182
369;-4.1444;3.1045;0.0000;-0.0258;0.0219
370;-3.8508;3.1037;0.0000;-0.0355;0.0218
371;-3.5484;3.1039;0.0000;-0.0390;0.0212
372;-3.2411;3.1042;0.0000;-0.0176;0.0189
373;-2.9312;3.1044;0.0000;-0.0025;0.0273
374;-2.6200;3.1044;0.0000;-0.0113;0.0454
375;-2.3085;3.1045;0.0000;-0.0166;0.0513
376;-1.9967;3.1044;0.0000;-0.0171;0.0448
377;-1.6848;3.1045;0.0000;-0.0040;0.0322
378;-1.3729;3.1046;0.0000;0.0000;0.0230
379;-1.0610;3.1045;0.0000;-0.0028;0.0287
380;-0.7490;3.1046;0.0000;0.0071;0.0397
381;-0.4371;3.1045;0.0000;0.0084;0.0380
382;-0.1251;3.1044;0.0000;0.0071;0.0311
383;0.1868;3.1044;0.0000;0.0054;0.0440
384;0.4988;3.1043;0.0000;0.0014;0.0656
385;0.8107;3.1043;0.0000;0.0024;0.0630
386;1.1227;3.1042;0.0000;0.0034;0.0492
387;1.4346;3.1042;0.0000;-0.0029;0.0528
388;1.7465;3.1042;0.0000;-0.0018;0.0605
389;2.0584;3.1040;0.0000;0.0063;0.0621
390;2.3696;3.1037;0.0000;-0.0064;0.0633
391;2.6789;3.1031;0.0000;-0.0224;0.0581
392;2.9836;3.1024;0.0000;-0.0215;0.0550
393;3.2812;3.1026;0.0000;-0.0134;0.0598
394;3.5729;3.1042;0.0000;-0.0048;0.0616
395;-4.3040;2.8432;0.0000;-0.0176;0.0103
396;-4.0032;2.8343;0.0000;-0.0273;0.0079
397;-3.7014;2.8333;0.0000;-0.0375;-0.0002
398;-3.3954;2.8337;0.0000;-0.0303;0.0026
399;-3.0864;2.8341;0.0000;-0.0121;0.0142
400;-2.7757;2.8341;0.0000;-0.0140;0.0276
401;-2.4643;2.8341;0.0000;-0.0183;0.0389
402;-2.1526;2.8342;0.0000;-0.0134;0.0354
403;-1.8408;2.8342;0.0000;-0.0103;0.0282
404;-1.5289;2.8343;0.0000;-0.0006;0.0349
405;-1.2170;2.8343;0.0000;0.0013;0.0331
406;-0.9050;2.8343;0.0000;0.0085;0.0380
407;-0.5930;2.8342;0.0000;0.0111;0.0486
408;-0.2811;2.8342;0.0000;0.0040;0.0397
409;0.0308;2.8342;0.0000;0.0105;0.0391
410;0.3428;2.8340;0.0000;0.0104;0.0549
411;0.6548;2.8339;0.0000;0.0067;0.0633
412;0.9667;2.8339;0.0000;0.0009;0.0527
413;1.2787;2.8339;0.0000;0.0015;0.0538
414;1.5906;2.8338;0.0000;-0.0001;0.0662
415;1.9025;2.8337;0.0000;0.0013;0.0671
416;2.2141;2.8335;0.0000;0.0021;0.0616
417;2.5244;2.8332;0.0000;-0.0175;0.0552
418;2.8306;2.8328;0.0000;-0.0266;0.0573
419;3.1270;2.8327;0.0000;-0.0116;0.0638
420;3.4041;2.8294;0.0000;-0.0044;0.0677
421;3.6408;2.8246;0.0000;-0.0092;0.0667
422;-4.3983;2.5878;0.0000;-0.0158;-0.0109
423;-4.1389;2.5655;0.0000;-0.0176;-0.0152
424;-3.8497;2.5626;0.0000;-0.0329;-0.0117
425;-3.5482;2.5631;0.0000;-0.0374;0.0035
426;-3.2411;2.5636;0.0000;-0.0241;0.0160
427;-2.9312;2.5639;0.0000;-0.0221;0.0160
428;-2.6201;2.5639;0.0000;-0.0159;0.0101
429;-2.3086;2.5639;0.0000;-0.0020;0.0081
430;-1.9967;2.5640;0.0000;-0.0029;0.0160
431;-1.6848;2.5640;0.0000;-0.0107;0.0337
432;-1.3730;2.5640;0.0000;-0.0007;0.0461
433;-1.0610;2.5640;0.0000;0.0066;0.0464
434;-0.7490;2.5639;0.0000;0.0089;0.0471
435;-0.4371;2.5639;0.0000;0.0101;0.0510
436;-0.1251;2.5639;0.0000;0.0097;0.0520
437;0.1869;2.5638;0.0000;0.0113;0.0517
438;0.4988;2.5637;0.0000;0.0092;0.0493
439;0.8108;2.5636;0.0000;0.0075;0.0468
440;1.1228;2.5636;0.0000;0.0024;0.0520
441;1.4347;2.5635;0.0000;0.0101;0.0561
442;1.7467;2.5634;0.0000;0.0038;0.0521
443;2.0585;2.5633;0.0000;-0.0038;0.0474
444;2.3696;2.5631;0.0000;-0.0113;0.0484
445;2.6783;2.5628;0.0000;-0.0249;0.0564
446;2.9811;2.5626;0.0000;-0.0227;0.0610
447;3.2745;2.5620;0.0000;-0.0082;0.0574
448;3.5646;2.5458;0.0000;-0.0102;0.0473
449;-4.3229;2.3031;0.0000;-0.0282;-0.0205
450;-4.0111;2.2931;0.0000;-0.0263;-0.0199
451;-3.7042;2.2927;0.0000;-0.0341;-0.0048
452;-3.3963;2.2932;0.0000;-0.0261;0.0089
453;-3.0867;2.2936;0.0000;-0.0231;0.0064
454;-2.7759;2.2937;0.0000;-0.0193;0.0018
455;-2.4644;2.2938;0.0000;0.0000;-0.0017
456;-2.1526;2.2938;0.0000;0.0034;-0.0023
457;-1.8407;2.2938;0.0000;-0.0090;0.0107
458;-1.5289;2.2938;0.0000;-0.0080;0.0343
459;-1.2170;2.2937;0.0000;0.0087;0.0491
460;-0.9050;2.2937;0.0000;0.0094;0.0503
461;-0.5930;2.2936;0.0000;0.0100;0.0593
462;-0.2810;2.2936;0.0000;0.0085;0.0693
463;0.0309;2.2936;0.0000;0.0049;0.0625
464;0.3429;2.2934;0.0000;0.0073;0.0492
465;0.6548;2.2934;0.0000;0.0109;0.0444
466;0.9668;2.2934;0.0000;0.0103;0.0476
467;1.2788;2.2933;0.0000;0.0142;0.0532
468;1.5908;2.2932;0.0000;0.0077;0.0615
469;1.9026;2.2931;0.0000;-0.0104;0.0581
470;2.2141;2.2929;0.0000;-0.0061;0.0505
471;2.5240;2.2926;0.0000;-0.0143;0.0504
472;2.8288;2.2922;0.0000;-0.0259;0.0469
473;3.1210;2.2920;0.0000;-0.0236;0.0459
474;3.3909;2.2916;0.0000;-0.0147;0.0427
475;3.6304;2.2558;0.0000;-0.0151;0.0337
476;-4.4073;2.0278;0.0000;-0.0432;-0.0241
477;-4.1470;2.0234;0.0000;-0.0303;-0.0203
478;-3.8533;2.0231;0.0000;-0.0331;-0.0125
479;-3.5496;2.0231;0.0000;-0.0355;-0.0108
480;-3.2415;2.0234;0.0000;-0.0205;-0.0105
481;-2.9313;2.0236;0.0000;-0.0165;-0.0023
482;-2.6202;2.0236;0.0000;-0.0101;0.0053
483;-2.3085;2.0236;0.0000;-0.0015;0.0122
484;-1.9967;2.0236;0.0000;-0.0045;0.0161
485;-1.6848;2.0236;0.0000;-0.0008;0.0200
486;-1.3729;2.0235;0.0000;0.0047;0.0307
487;-1.0609;2.0235;0.0000;0.0095;0.0423
488;-0.7489;2.0234;0.0000;0.0123;0.0535
489;-0.4369;2.0233;0.0000;0.0115;0.0619
490;-0.1250;2.0232;0.0000;0.0033;0.0638
491;0.1869;2.0232;0.0000;0.0024;0.0562
492;0.4989;2.0231;0.0000;0.0051;0.0499
493;0.8109;2.0231;0.0000;0.0116;0.0541
494;1.1228;2.0231;0.0000;0.0184;0.0580
495;1.4349;2.0229;0.0000;0.0146;0.0617
496;1.7468;2.0228;0.0000;-0.0079;0.0654
497;2.0585;2.0227;0.0000;-0.0090;0.0573
498;2.3695;2.0225;0.0000;-0.0031;0.0444
499;2.6775;2.0218;0.0000;-0.0173;0.0404
500;2.9777;2.0207;0.0000;-0.0269;0.0390
501;3.2635;2.0201;0.0000;-0.0268;0.0322
502;3.5345;2.0241;0.0000;-0.0269;0.0247
503;-4.3229;1.7448;0.0000;-0.0369;-0.0370
504;-4.0110;1.7531;0.0000;-0.0278;-0.0227
505;-3.7041;1.7534;0.0000;-0.0366;-0.0188
506;-3.3963;1.7533;0.0000;-0.0328;-0.0202
507;-3.0867;1.7535;0.0000;-0.0198;-0.0071
508;-2.7758;1.7535;0.0000;-0.0137;-0.0033
509;-2.4643;1.7534;0.0000;-0.0092;-0.0073
510;-2.1526;1.7534;0.0000;-0.0142;0.0064
511;-1.8408;1.7534;0.0000;0.0008;0.0187
512;-1.5288;1.7533;0.0000;0.0124;0.0182
513;-1.2169;1.7532;0.0000;0.0061;0.0243
514;-0.9049;1.7531;0.0000;0.0090;0.0328
515;-0.5929;1.7530;0.0000;0.0109;0.0291
516;-0.2810;1.7530;0.0000;0.0133;0.0282
517;0.0310;1.7529;0.0000;0.0182;0.0338
518;0.3430;1.7529;0.0000;0.0058;0.0330
519;0.6549;1.7528;0.0000;-0.0009;0.0345
520;0.9669;1.7528;0.0000;0.0090;0.0432
521;1.2789;1.7526;0.0000;0.0125;0.0446
522;1.5908;1.7525;0.0000;0.0032;0.0334
523;1.9027;1.7525;0.0000;-0.0092;0.0310
524;2.2142;1.7523;0.0000;-0.0033;0.0389
525;2.5241;1.7518;0.0000;-0.0080;0.0369
526;2.8291;1.7504;0.0000;-0.0205;0.0273
527;3.1223;1.7487;0.0000;-0.0295;0.0201
528;3.3953;1.7508;0.0000;-0.0365;0.0133
529;3.6374;1.7995;0.0000;-0.0315;0.0090
530;-4.3966;1.4567;0.0000;-0.0334;-0.0424
531;-4.1384;1.4803;0.0000;-0.0296;-0.0317
532;-3.8496;1.4833;0.0000;-0.0306;-0.0226
533;-3.5482;1.4833;0.0000;-0.0309;-0.0252
534;-3.2409;1.4833;0.0000;-0.0278;-0.0208
535;-2.9311;1.4833;0.0000;-0.0200;-0.0134
536;-2.6201;1.4834;0.0000;-0.0134;-0.0119
537;-2.3085;1.4833;0.0000;-0.0189;-0.0122
538;-1.9967;1.4833;0.0000;-0.0116;-0.0047
539;-1.6848;1.4832;0.0000;0.0151;0.0026
540;-1.3728;1.4831;0.0000;0.0117;0.0047
541;-1.0609;1.4830;0.0000;0.0027;0.0102
542;-0.7489;1.4829;0.0000;0.0136;0.0077
543;-0.4369;1.4828;0.0000;0.0203;0.0037
544;-0.1249;1.4828;0.0000;0.0261;0.0065
545;0.1871;1.4827;0.0000;0.0164;0.0010
546;0.4991;1.4827;0.0000;-0.0019;-0.0001
547;0.8110;1.4826;0.0000;0.0019;0.0096
548;1.1230;1.4825;0.0000;0.0056;0.0109
549;1.4349;1.4824;0.0000;0.0020;0.0072
550;1.7468;1.4823;0.0000;-0.0048;0.0037
551;2.0586;1.4822;0.0000;-0.0062;0.0048
552;2.3697;1.4818;0.0000;-0.0041;0.0107
553;2.6786;1.4808;0.0000;-0.0197;0.0099
554;2.9820;1.4789;0.0000;-0.0292;0.0079
555;3.2769;1.4796;0.0000;-0.0330;0.0063
556;3.5688;1.4980;0.0000;-0.0388;0.0063
557;-4.3029;1.2011;0.0000;-0.0302;-0.0297
558;-4.0026;1.2110;0.0000;-0.0311;-0.0312
559;-3.7011;1.2126;0.0000;-0.0310;-0.0277
560;-3.3952;1.2131;0.0000;-0.0285;-0.0350
561;-3.0862;1.2132;0.0000;-0.0239;-0.0378
562;-2.7756;1.2132;0.0000;-0.0106;-0.0259
563;-2.4642;1.2132;0.0000;-0.0170;-0.0134
564;-2.1526;1.2132;0.0000;-0.0173;-0.0102
565;-1.8407;1.2131;0.0000;0.0017;-0.0089
566;-1.5288;1.2130;0.0000;0.0135;-0.0111
567;-1.2168;1.2129;0.0000;0.0127;-0.0169
568;-0.9048;1.2128;0.0000;0.0132;-0.0163
569;-0.5928;1.2127;0.0000;0.0168;-0.0113
570;-0.2808;1.2126;0.0000;0.0178;-0.0105
571;0.0312;1.2126;0.0000;0.0167;-0.0094
572;0.3431;1.2126;0.0000;0.0121;-0.0048
573;0.6551;1.2125;0.0000;0.0038;-0.0013
574;0.9671;1.2124;0.0000;-0.0018;-0.0011
575;1.2790;1.2123;0.0000;-0.0011;-0.0014
576;1.5909;1.2122;0.0000;-0.0004;0.0012
577;1.9028;1.2122;0.0000;-0.0082;-0.0023
578;2.2143;1.2119;0.0000;-0.0096;-0.0072
579;2.5248;1.2112;0.0000;-0.0197;-0.0068
580;2.8315;1.2093;0.0000;-0.0295;-0.0028
581;3.1284;1.2071;0.0000;-0.0239;0.0008
582;3.4046;1.2130;0.0000;-0.0366;0.0017
583;3.6428;1.2248;0.0000;-0.0465;0.0044
584;-4.4246;0.9339;0.0000;-0.0282;-0.0269
585;-4.1434;0.9404;0.0000;-0.0273;-0.0328
586;-3.8501;0.9419;0.0000;-0.0252;-0.0430
587;-3.5480;0.9427;0.0000;-0.0246;-0.0453
588;-3.2408;0.9431;0.0000;-0.0305;-0.0431
589;-2.9310;0.9432;0.0000;-0.0137;-0.0352
590;-2.6199;0.9431;0.0000;-0.0088;-0.0223
591;-2.3083;0.9431;0.0000;-0.0155;-0.0179
592;-1.9966;0.9430;0.0000;-0.0037;-0.0171
593;-1.6847;0.9429;0.0000;0.0075;-0.0137
594;-1.3727;0.9429;0.0000;0.0153;-0.0190
595;-1.0607;0.9428;0.0000;0.0141;-0.0273
596;-0.7487;0.9427;0.0000;0.0128;-0.0265
597;-0.4367;0.9426;0.0000;0.0119;-0.0234
598;-0.1248;0.9425;0.0000;0.0084;-0.0140
599;0.1872;0.9425;0.0000;0.0139;0.0015
600;0.4992;0.9424;0.0000;0.0165;0.0000
601;0.8112;0.9423;0.0000;-0.0020;-0.0121
602;1.1230;0.9422;0.0000;-0.0070;-0.0083
603;1.4350;0.9421;0.0000;-0.0022;0.0010
604;1.7469;0.9420;0.0000;0.0013;-0.0007
605;2.0587;0.9419;0.0000;-0.0102;-0.0050
606;2.3702;0.9415;0.0000;-0.0181;0.0005
607;2.6805;0.9400;0.0000;-0.0275;0.0082
608;2.9879;0.9364;0.0000;-0.0291;0.0051
609;3.2888;0.9336;0.0000;-0.0323;0.0006
610;3.5779;0.9426;0.0000;-0.0512;0.0023
611;-4.3033;0.6755;0.0000;-0.0220;-0.0379
612;-4.0028;0.6718;0.0000;-0.0245;-0.0418
613;-3.7010;0.6722;0.0000;-0.0241;-0.0458
614;-3.3951;0.6728;0.0000;-0.0265;-0.0390
615;-3.0862;0.6731;0.0000;-0.0199;-0.0330
616;-2.7755;0.6731;0.0000;-0.0013;-0.0272
617;-2.4641;0.6730;0.0000;-0.0096;-0.0202
618;-2.1524;0.6730;0.0000;-0.0104;-0.0216
619;-1.8405;0.6729;0.0000;-0.0027;-0.0277
620;-1.5286;0.6728;0.0000;0.0041;-0.0262
621;-1.2167;0.6728;0.0000;0.0119;-0.0207
622;-0.9047;0.6726;0.0000;0.0113;-0.0211
623;-0.5927;0.6725;0.0000;0.0127;-0.0228
624;-0.2807;0.6725;0.0000;0.0116;-0.0149
625;0.0312;0.6723;0.0000;0.0090;-0.0065
626;0.3432;0.6723;0.0000;0.0152;-0.0083
627;0.6552;0.6722;0.0000;0.0085;-0.0138
628;0.9671;0.6722;0.0000;-0.0026;-0.0150
629;1.2791;0.6720;0.0000;-0.0079;-0.0155
630;1.5910;0.6719;0.0000;-0.0042;-0.0090
631;1.9029;0.6719;0.0000;-0.0061;0.0042
632;2.2148;0.6717;0.0000;-0.0137;0.0020
633;2.5268;0.6709;0.0000;-0.0130;-0.0033
634;2.8397;0.6689;0.0000;-0.0303;-0.0010
635;3.1557;0.6662;0.0000;-0.0399;-0.0005
636;3.4817;0.6744;0.0000;-0.0484;-0.0016
637;-4.3988;0.4166;0.0000;-0.0202;-0.0444
638;-4.1392;0.4014;0.0000;-0.0175;-0.0500
639;-3.8497;0.4012;0.0000;-0.0238;-0.0507
640;-3.5480;0.4022;0.0000;-0.0255;-0.0377
641;-3.2408;0.4028;0.0000;-0.0219;-0.0241
642;-2.9309;0.4030;0.0000;-0.0009;-0.0293
643;-2.6197;0.4030;0.0000;-0.0063;-0.0406
644;-2.3081;0.4029;0.0000;-0.0148;-0.0372
645;-1.9964;0.4029;0.0000;-0.0085;-0.0326
646;-1.6845;0.4028;0.0000;-0.0042;-0.0329
647;-1.3726;0.4027;0.0000;0.0114;-0.0261
648;-1.0606;0.4026;0.0000;0.0150;-0.0225
649;-0.7486;0.4025;0.0000;0.0074;-0.0245
650;-0.4367;0.4024;0.0000;0.0076;-0.0202
651;-0.1247;0.4023;0.0000;0.0091;-0.0205
652;0.1873;0.4022;0.0000;0.0097;-0.0222
653;0.4992;0.4021;0.0000;0.0093;-0.0158
654;0.8112;0.4021;0.0000;0.0071;-0.0059
655;1.1232;0.4020;0.0000;-0.0008;-0.0098
656;1.4351;0.4019;0.0000;-0.0122;-0.0198
657;1.7470;0.4018;0.0000;-0.0064;-0.0116
658;2.0589;0.4016;0.0000;-0.0173;-0.0031
659;2.3710;0.4014;0.0000;-0.0117;-0.0083
660;2.6837;0.4007;0.0000;-0.0179;-0.0151
661;2.9978;0.3993;0.0000;-0.0365;-0.0093
662;3.3131;0.3999;0.0000;-0.0471;0.0072
663;3.6150;0.4198;0.0000;-0.0469;0.0131
664;-4.3239;0.1354;0.0000;-0.0069;-0.0449
665;-4.0111;0.1313;0.0000;-0.0190;-0.0491
666;-3.7039;0.1321;0.0000;-0.0352;-0.0439
667;-3.3960;0.1326;0.0000;-0.0283;-0.0293
668;-3.0864;0.1329;0.0000;-0.0045;-0.0284
669;-2.7754;0.1330;0.0000;0.0003;-0.0412
670;-2.4640;0.1329;0.0000;-0.0199;-0.0447
671;-2.1523;0.1329;0.0000;-0.0064;-0.0337
672;-1.8404;0.1328;0.0000;0.0020;-0.0268
673;-1.5285;0.1327;0.0000;-0.0007;-0.0258
674;-1.2165;0.1326;0.0000;0.0138;-0.0174
675;-0.9045;0.1325;0.0000;0.0082;-0.0115
676;-0.5926;0.1324;0.0000;0.0059;-0.0146
677;-0.2806;0.1323;0.0000;0.0093;-0.0194
678;0.0314;0.1322;0.0000;0.0087;-0.0231
679;0.3433;0.1321;0.0000;0.0039;-0.0200
680;0.6553;0.1320;0.0000;0.0049;-0.0076
681;0.9672;0.1319;0.0000;0.0062;0.0002
682;1.2792;0.1318;0.0000;-0.0092;-0.0016
683;1.5911;0.1317;0.0000;-0.0089;-0.0125
684;1.9030;0.1316;0.0000;-0.0138;-0.0205
685;2.2151;0.1315;0.0000;-0.0214;-0.0166
686;2.5278;0.1313;0.0000;-0.0196;-0.0152
687;2.8426;0.1310;0.0000;-0.0263;-0.0157
688;3.1625;0.1310;0.0000;-0.0357;-0.0095
689;3.4927;0.1298;0.0000;-0.0462;0.0009
690;-4.4030;-0.1420;0.0000;-0.0017;-0.0417
691;-4.1450;-0.1396;0.0000;-0.0085;-0.0376
692;-3.8521;-0.1374;0.0000;-0.0230;-0.0352
693;-3.5488;-0.1372;0.0000;-0.0259;-0.0342
694;-3.2410;-0.1371;0.0000;-0.0125;-0.0313
695;-2.9308;-0.1370;0.0000;0.0019;-0.0292
696;-2.6196;-0.1371;0.0000;-0.0152;-0.0324
697;-2.3081;-0.1372;0.0000;-0.0152;-0.0307
698;-1.9962;-0.1373;0.0000;0.0056;-0.0203
699;-1.6843;-0.1373;0.0000;-0.0024;-0.0171
700;-1.3724;-0.1375;0.0000;0.0016;-0.0182
701;-1.0604;-0.1376;0.0000;0.0082;-0.0087
702;-0.7485;-0.1377;0.0000;0.0054;-0.0015
703;-0.4365;-0.1378;0.0000;0.0107;-0.0079
704;-0.1245;-0.1379;0.0000;0.0129;-0.0121
705;0.1874;-0.1380;0.0000;0.0101;-0.0110
706;0.4994;-0.1381;0.0000;-0.0009;-0.0071
707;0.8113;-0.1382;0.0000;-0.0012;-0.0076
708;1.1233;-0.1383;0.0000;-0.0026;-0.0076
709;1.4352;-0.1384;0.0000;-0.0086;-0.0090
710;1.7471;-0.1384;0.0000;-0.0117;-0.0181
711;2.0591;-0.1385;0.0000;-0.0241;-0.0142
712;2.3713;-0.1385;0.0000;-0.0220;-0.0044
713;2.6843;-0.1384;0.0000;-0.0246;-0.0022
714;2.9986;-0.1381;0.0000;-0.0291;-0.0076
715;3.3123;-0.1385;0.0000;-0.0393;-0.0128
716;3.6140;-0.1622;0.0000;-0.0448;-0.0179
717;-4.3196;-0.4218;0.0000;-0.0087;-0.0219
718;-4.0084;-0.4071;0.0000;-0.0063;-0.0216
719;-3.7027;-0.4067;0.0000;-0.0123;-0.0172
720;-3.3954;-0.4070;0.0000;-0.0074;-0.0173
721;-3.0860;-0.4071;0.0000;-0.0069;-0.0133
722;-2.7752;-0.4071;0.0000;-0.0091;-0.0099
723;-2.4638;-0.4071;0.0000;-0.0128;-0.0147
724;-2.1520;-0.4073;0.0000;-0.0063;-0.0147
725;-1.8402;-0.4074;0.0000;-0.0049;-0.0051
726;-1.5283;-0.4075;0.0000;-0.0068;-0.0016
727;-1.2164;-0.4076;0.0000;0.0018;-0.0107
728;-0.9045;-0.4078;0.0000;0.0001;-0.0160
729;-0.5925;-0.4079;0.0000;0.0134;-0.0152
730;-0.2805;-0.4080;0.0000;0.0217;-0.0194
731;0.0315;-0.4081;0.0000;0.0230;-0.0198
732;0.3436;-0.4082;0.0000;0.0115;-0.0125
733;0.6555;-0.4083;0.0000;-0.0069;-0.0123
734;0.9674;-0.4083;0.0000;-0.0120;-0.0146
735;1.2793;-0.4085;0.0000;-0.0084;-0.0125
736;1.5912;-0.4085;0.0000;-0.0112;-0.0114
737;1.9031;-0.4085;0.0000;-0.0250;-0.0103
738;2.2152;-0.4086;0.0000;-0.0269;-0.0087
739;2.5278;-0.4086;0.0000;-0.0179;-0.0067
740;2.8418;-0.4084;0.0000;-0.0268;-0.0069
741;3.1582;-0.4090;0.0000;-0.0359;-0.0082
742;3.4798;-0.4126;0.0000;-0.0399;-0.0096
743;-4.3934;-0.7115;0.0000;-0.0040;-0.0192
744;-4.1331;-0.6774;0.0000;0.0003;-0.0154
745;-3.8464;-0.6764;0.0000;-0.0043;-0.0069
746;-3.5465;-0.6770;0.0000;-0.0038;0.0043
747;-3.2399;-0.6772;0.0000;-0.0089;0.0014
748;-2.9303;-0.6772;0.0000;-0.0154;-0.0061
749;-2.6194;-0.6773;0.0000;-0.0118;-0.0023
750;-2.3078;-0.6774;0.0000;-0.0122;-0.0035
751;-1.9961;-0.6775;0.0000;-0.0125;-0.0102
752;-1.6842;-0.6776;0.0000;-0.0107;-0.0094
753;-1.3723;-0.6777;0.0000;0.0020;-0.0062
754;-1.0603;-0.6778;0.0000;0.0057;-0.0125
755;-0.7484;-0.6779;0.0000;0.0103;-0.0210
756;-0.4364;-0.6780;0.0000;0.0215;-0.0208
757;-0.1244;-0.6781;0.0000;0.0172;-0.0175
758;0.1876;-0.6782;0.0000;0.0097;-0.0149
759;0.4995;-0.6783;0.0000;0.0097;-0.0095
760;0.8115;-0.6784;0.0000;-0.0052;-0.0028
761;1.1234;-0.6785;0.0000;-0.0153;-0.0076
762;1.4353;-0.6786;0.0000;-0.0150;-0.0111
763;1.7472;-0.6786;0.0000;-0.0265;-0.0002
764;2.0591;-0.6787;0.0000;-0.0363;0.0045
765;2.3712;-0.6787;0.0000;-0.0189;-0.0102
766;2.6838;-0.6787;0.0000;-0.0102;-0.0226
767;2.9961;-0.6794;0.0000;-0.0297;-0.0175
768;3.3046;-0.6838;0.0000;-0.0377;-0.0115
769;3.5915;-0.6673;0.0000;-0.0462;-0.0085
770;-4.2885;-0.9472;0.0000;0.0005;-0.0134
771;-3.9954;-0.9478;0.0000;-0.0055;-0.0062
772;-3.6978;-0.9478;0.0000;-0.0029;-0.0048
773;-3.3935;-0.9476;0.0000;0.0011;-0.0058
774;-3.0852;-0.9474;0.0000;-0.0106;-0.0093
775;-2.7748;-0.9474;0.0000;-0.0130;-0.0024
776;-2.4635;-0.9475;0.0000;-0.0171;0.0072
777;-2.1519;-0.9475;0.0000;-0.0175;-0.0053
778;-1.8400;-0.9477;0.0000;-0.0075;-0.0152
779;-1.5281;-0.9478;0.0000;-0.0032;-0.0133
780;-1.2162;-0.9479;0.0000;0.0105;-0.0158
781;-0.9042;-0.9480;0.0000;0.0119;-0.0184
782;-0.5923;-0.9481;0.0000;0.0150;-0.0088
783;-0.2803;-0.9481;0.0000;0.0158;0.0053
784;0.0317;-0.9483;0.0000;0.0071;0.0068
785;0.3436;-0.9484;0.0000;0.0079;0.0049
786;0.6556;-0.9485;0.0000;0.0040;0.0062
787;0.9676;-0.9486;0.0000;-0.0186;0.0007
788;1.2794;-0.9487;0.0000;-0.0242;-0.0056
789;1.5913;-0.9487;0.0000;-0.0276;-0.0015
790;1.9032;-0.9489;0.0000;-0.0336;0.0003
791;2.2152;-0.9489;0.0000;-0.0263;-0.0060
792;2.5281;-0.9487;0.0000;-0.0139;-0.0095
793;2.8429;-0.9487;0.0000;-0.0187;-0.0094
794;3.1636;-0.9497;0.0000;-0.0298;-0.0151
795;3.5024;-0.9538;0.0000;-0.0440;-0.0205
796;-4.3922;-1.1812;0.0000;0.0078;-0.0006
797;-4.1318;-1.2176;0.0000;-0.0078;0.0045
798;-3.8454;-1.2193;0.0000;0.0006;0.0026
799;-3.5459;-1.2184;0.0000;0.0100;-0.0110
800;-3.2395;-1.2179;0.0000;0.0005;-0.0185
801;-2.9300;-1.2176;0.0000;-0.0049;-0.0079
802;-2.6191;-1.2176;0.0000;-0.0155;-0.0017
803;-2.3076;-1.2177;0.0000;-0.0299;-0.0008
804;-1.9959;-1.2177;0.0000;-0.0161;0.0026
805;-1.6840;-1.2179;0.0000;0.0012;0.0031
806;-1.3721;-1.2180;0.0000;0.0034;-0.0014
807;-1.0601;-1.2180;0.0000;0.0129;-0.0041
808;-0.7482;-1.2181;0.0000;0.0118;-0.0010
809;-0.4362;-1.2183;0.0000;0.0112;0.0071
810;-0.1242;-1.2184;0.0000;0.0121;0.0139
811;0.1878;-1.2185;0.0000;0.0119;0.0142
812;0.4998;-1.2186;0.0000;0.0034;0.0055
813;0.8117;-1.2187;0.0000;-0.0154;-0.0082
814;1.1235;-1.2188;0.0000;-0.0244;-0.0113
815;1.4354;-1.2189;0.0000;-0.0276;-0.0071
816;1.7472;-1.2190;0.0000;-0.0335;-0.0073
817;2.0592;-1.2190;0.0000;-0.0230;-0.0162
818;2.3713;-1.2189;0.0000;-0.0195;-0.0205
819;2.6836;-1.2186;0.0000;-0.0326;-0.0177
820;2.9953;-1.2182;0.0000;-0.0294;-0.0220
821;3.3032;-1.2182;0.0000;-0.0244;-0.0273
822;3.5873;-1.2406;0.0000;-0.0454;-0.0249
823;-4.3188;-1.4710;0.0000;0.0029;0.0113
824;-4.0074;-1.4884;0.0000;0.0011;0.0115
825;-3.7018;-1.4892;0.0000;0.0200;0.0018
826;-3.3946;-1.4883;0.0000;0.0060;-0.0066
827;-3.0854;-1.4879;0.0000;-0.0042;-0.0031
828;-2.7747;-1.4877;0.0000;-0.0095;-0.0035
829;-2.4633;-1.4878;0.0000;-0.0264;-0.0129
830;-2.1517;-1.4878;0.0000;-0.0239;-0.0038
831;-1.8399;-1.4880;0.0000;-0.0069;0.0097
832;-1.5280;-1.4881;0.0000;-0.0012;0.0124
833;-1.2161;-1.4882;0.0000;0.0064;0.0175
834;-0.9041;-1.4883;0.0000;0.0120;0.0192
835;-0.5921;-1.4884;0.0000;0.0104;0.0078
836;-0.2802;-1.4885;0.0000;0.0092;0.0010
837;0.0318;-1.4886;0.0000;0.0119;0.0107
838;0.3438;-1.4888;0.0000;0.0079;0.0153
839;0.6557;-1.4888;0.0000;-0.0109;0.0030
840;0.9676;-1.4889;0.0000;-0.0192;-0.0086
841;1.2795;-1.4889;0.0000;-0.0225;-0.0105
842;1.5914;-1.4890;0.0000;-0.0320;-0.0106
843;1.9032;-1.4891;0.0000;-0.0307;-0.0137
844;2.2153;-1.4891;0.0000;-0.0205;-0.0176
845;2.5276;-1.4889;0.0000;-0.0335;-0.0208
846;2.8406;-1.4887;0.0000;-0.0410;-0.0252
847;3.1555;-1.4887;0.0000;-0.0247;-0.0273
848;3.4768;-1.4943;0.0000;-0.0333;-0.0258
849;-4.4022;-1.7507;0.0000;0.0212;0.0122
850;-4.1446;-1.7545;0.0000;0.0018;0.0096
851;-3.8515;-1.7585;0.0000;0.0183;0.0034
852;-3.5481;-1.7585;0.0000;0.0187;-0.0007
853;-3.2402;-1.7581;0.0000;0.0011;0.0030
854;-2.9301;-1.7579;0.0000;-0.0057;0.0019
855;-2.6190;-1.7579;0.0000;-0.0229;-0.0029
856;-2.3075;-1.7579;0.0000;-0.0153;-0.0001
857;-1.9956;-1.7581;0.0000;-0.0063;0.0013
858;-1.6838;-1.7582;0.0000;-0.0162;0.0075
859;-1.3719;-1.7583;0.0000;-0.0100;0.0190
860;-1.0600;-1.7584;0.0000;0.0136;0.0209
861;-0.7480;-1.7585;0.0000;0.0153;0.0185
862;-0.4360;-1.7586;0.0000;0.0112;0.0116
863;-0.1240;-1.7587;0.0000;0.0041;0.0013
864;0.1879;-1.7589;0.0000;-0.0015;0.0030
865;0.4998;-1.7590;0.0000;-0.0060;0.0038
866;0.8117;-1.7590;0.0000;-0.0111;0.0000
867;1.1236;-1.7590;0.0000;-0.0167;-0.0044
868;1.4355;-1.7591;0.0000;-0.0287;-0.0123
869;1.7473;-1.7592;0.0000;-0.0397;-0.0170
870;2.0592;-1.7592;0.0000;-0.0342;-0.0199
871;2.3712;-1.7591;0.0000;-0.0321;-0.0181
872;2.6834;-1.7590;0.0000;-0.0413;-0.0129
873;2.9952;-1.7586;0.0000;-0.0295;-0.0116
874;3.3051;-1.7572;0.0000;-0.0184;-0.0154
875;3.6113;-1.7522;0.0000;-0.0286;-0.0304
876;-4.3224;-2.0286;0.0000;0.0179;0.0133
877;-4.0106;-2.0266;0.0000;0.0155;0.0083
878;-3.7034;-2.0281;0.0000;0.0240;0.0068
879;-3.3953;-2.0281;0.0000;0.0063;-0.0017
880;-3.0855;-2.0280;0.0000;-0.0041;-0.0078
881;-2.7747;-2.0280;0.0000;-0.0109;-0.0068
882;-2.4632;-2.0280;0.0000;-0.0138;-0.0034
883;-2.1515;-2.0282;0.0000;0.0024;0.0021
884;-1.8396;-2.0283;0.0000;-0.0091;0.0036
885;-1.5277;-2.0284;0.0000;-0.0274;0.0010
886;-1.2159;-2.0286;0.0000;-0.0003;0.0004
887;-0.9039;-2.0287;0.0000;0.0193;0.0028
888;-0.5919;-2.0288;0.0000;0.0068;0.0090
889;-0.2800;-2.0288;0.0000;0.0030;0.0098
890;0.0320;-2.0289;0.0000;-0.0032;-0.0016
891;0.3439;-2.0291;0.0000;-0.0067;-0.0120
892;0.6558;-2.0291;0.0000;-0.0102;-0.0050
893;0.9677;-2.0291;0.0000;-0.0137;0.0037
894;1.2796;-2.0292;0.0000;-0.0209;-0.0043
895;1.5915;-2.0292;0.0000;-0.0384;-0.0182
896;1.9033;-2.0293;0.0000;-0.0433;-0.0231
897;2.2153;-2.0293;0.0000;-0.0392;-0.0190
898;2.5275;-2.0292;0.0000;-0.0390;-0.0138
899;2.8403;-2.0292;0.0000;-0.0288;-0.0120
900;3.1545;-2.0276;0.0000;-0.0194;-0.0117
901;3.4749;-2.0160;0.0000;-0.0244;-0.0203
902;-4.3968;-2.3096;0.0000;0.0207;0.0313
903;-4.1380;-2.2967;0.0000;0.0113;0.0260
904;-3.8492;-2.2974;0.0000;0.0199;0.0190
905;-3.5474;-2.2980;0.0000;0.0124;0.0171
906;-3.2400;-2.2980;0.0000;0.0015;0.0126
907;-2.9300;-2.2981;0.0000;0.0009;0.0061
908;-2.6189;-2.2981;0.0000;-0.0065;0.0077
909;-2.3072;-2.2982;0.0000;-0.0030;0.0096
910;-1.9954;-2.2984;0.0000;-0.0044;0.0043
911;-1.6836;-2.2985;0.0000;-0.0186;-0.0031
912;-1.3717;-2.2986;0.0000;-0.0204;-0.0074
913;-1.0598;-2.2987;0.0000;0.0110;-0.0075
914;-0.7478;-2.2988;0.0000;0.0129;-0.0002
915;-0.4359;-2.2990;0.0000;0.0043;0.0081
916;-0.1239;-2.2991;0.0000;0.0055;0.0072
917;0.1880;-2.2991;0.0000;-0.0096;-0.0043
918;0.4999;-2.2992;0.0000;-0.0163;-0.0088
919;0.8118;-2.2993;0.0000;-0.0217;-0.0028
920;1.1237;-2.2993;0.0000;-0.0253;0.0005
921;1.4355;-2.2993;0.0000;-0.0323;-0.0027
922;1.7474;-2.2994;0.0000;-0.0424;-0.0122
923;2.0592;-2.2994;0.0000;-0.0369;-0.0187
924;2.3712;-2.2994;0.0000;-0.0366;-0.0217
925;2.6832;-2.2996;0.0000;-0.0310;-0.0224
926;2.9943;-2.2998;0.0000;-0.0210;-0.0234
927;3.2996;-2.2958;0.0000;-0.0306;-0.0245
928;3.5821;-2.2658;0.0000;-0.0338;-0.0226
929;-4.3019;-2.5701;0.0000;0.0154;0.0406
930;-4.0019;-2.5683;0.0000;0.0173;0.0312
931;-3.7003;-2.5684;0.0000;0.0181;0.0313
932;-3.3942;-2.5684;0.0000;0.0125;0.0267
933;-3.0851;-2.5683;0.0000;0.0107;0.0223
934;-2.7744;-2.5683;0.0000;0.0022;0.0149
935;-2.4630;-2.5684;0.0000;-0.0053;0.0085
936;-2.1513;-2.5685;0.0000;-0.0099;-0.0008
937;-1.8395;-2.5686;0.0000;-0.0090;-0.0134
938;-1.5276;-2.5687;0.0000;-0.0140;-0.0097
939;-1.2157;-2.5688;0.0000;-0.0070;0.0036
940;-0.9037;-2.5689;0.0000;0.0117;0.0081
941;-0.5917;-2.5691;0.0000;0.0116;0.0026
942;-0.2798;-2.5692;0.0000;0.0103;-0.0061
943;0.0322;-2.5692;0.0000;-0.0063;-0.0109
944;0.3441;-2.5693;0.0000;-0.0204;-0.0112
945;0.6560;-2.5694;0.0000;-0.0253;-0.0137
946;0.9678;-2.5694;0.0000;-0.0377;-0.0175
947;1.2796;-2.5695;0.0000;-0.0390;-0.0168
948;1.5914;-2.5695;0.0000;-0.0399;-0.0094
949;1.9033;-2.5695;0.0000;-0.0358;-0.0072
950;2.2153;-2.5695;0.0000;-0.0294;-0.0200
951;2.5281;-2.5695;0.0000;-0.0336;-0.0330
952;2.8428;-2.5698;0.0000;-0.0307;-0.0298
953;3.1630;-2.5691;0.0000;-0.0274;-0.0245
954;3.4971;-2.5561;0.0000;-0.0222;-0.0204
955;-4.4215;-2.8287;0.0000;0.0291;0.0515
956;-4.1419;-2.8365;0.0000;0.0223;0.0438
957;-3.8490;-2.8386;0.0000;0.0230;0.0374
958;-3.5469;-2.8387;0.0000;0.0171;0.0321
959;-3.2397;-2.8385;0.0000;0.0172;0.0234
960;-2.9298;-2.8385;0.0000;0.0162;0.0135
961;-2.6186;-2.8385;0.0000;0.0025;0.0042
962;-2.3070;-2.8385;0.0000;-0.0118;0.0002
963;-1.9953;-2.8386;0.0000;-0.0124;0.0069
964;-1.6834;-2.8387;0.0000;-0.0031;0.0082
965;-1.3715;-2.8389;0.0000;-0.0095;0.0038
966;-1.0596;-2.8391;0.0000;0.0005;0.0052
967;-0.7476;-2.8392;0.0000;0.0057;0.0015
968;-0.4357;-2.8392;0.0000;0.0035;-0.0069
969;-0.1237;-2.8393;0.0000;-0.0047;-0.0134
970;0.1882;-2.8394;0.0000;-0.0176;-0.0139
971;0.5000;-2.8395;0.0000;-0.0234;-0.0111
972;0.8119;-2.8395;0.0000;-0.0369;-0.0154
973;1.1237;-2.8395;0.0000;-0.0389;-0.0212
974;1.4355;-2.8395;0.0000;-0.0366;-0.0205
975;1.7474;-2.8396;0.0000;-0.0406;-0.0198
976;2.0593;-2.8396;0.0000;-0.0358;-0.0189
977;2.3714;-2.8395;0.0000;-0.0286;-0.0183
978;2.6843;-2.8394;0.0000;-0.0266;-0.0225
979;2.9980;-2.8391;0.0000;-0.0274;-0.0252
980;3.3092;-2.8387;0.0000;-0.0291;-0.0250
981;3.5902;-2.8389;0.0000;-0.0133;-0.0221
982;-4.3003;-3.0968;0.0000;0.0325;0.0381
983;-4.0008;-3.1076;0.0000;0.0293;0.0370
984;-3.6996;-3.1092;0.0000;0.0224;0.0343
985;-3.3938;-3.1090;0.0000;0.0174;0.0333
986;-3.0849;-3.1087;0.0000;0.0173;0.0270
987;-2.7742;-3.1086;0.0000;0.0115;0.0251
988;-2.4628;-3.1087;0.0000;0.0023;0.0255
989;-2.1511;-3.1088;0.0000;-0.0071;0.0209
990;-1.8392;-3.1089;0.0000;-0.0073;0.0221
991;-1.5274;-3.1090;0.0000;-0.0120;0.0160
992;-1.2155;-3.1091;0.0000;-0.0056;0.0003
993;-0.9035;-3.1093;0.0000;0.0024;-0.0051
994;-0.5916;-3.1094;0.0000;-0.0021;0.0052
995;-0.2797;-3.1094;0.0000;-0.0089;0.0101
996;0.0322;-3.1095;0.0000;-0.0150;0.0047
997;0.3441;-3.1095;0.0000;-0.0164;0.0026
998;0.6560;-3.1096;0.0000;-0.0300;-0.0030
999;0.9678;-3.1096;0.0000;-0.0401;-0.0087
1000;1.2797;-3.1096;0.0000;-0.0378;-0.0120
1001;1.5915;-3.1097;0.0000;-0.0443;-0.0243
1002;1.9033;-3.1097;0.0000;-0.0427;-0.0338
1003;2.2154;-3.1096;0.0000;-0.0299;-0.0183
1004;2.5282;-3.1094;0.0000;-0.0234;-0.0004
1005;2.8429;-3.1089;0.0000;-0.0263;-0.0131
1006;3.1629;-3.1089;0.0000;-0.0320;-0.0261
1007;3.4962;-3.1217;0.0000;-0.0225;-0.0193
1008;-4.3933;-3.3512;0.0000;0.0421;0.0436
1009;-4.1355;-3.3758;0.0000;0.0439;0.0467
1010;-3.8473;-3.3800;0.0000;0.0329;0.0472
1011;-3.5464;-3.3797;0.0000;0.0196;0.0362
1012;-3.2394;-3.3792;0.0000;0.0226;0.0317
1013;-2.9296;-3.3790;0.0000;0.0219;0.0433
1014;-2.6185;-3.3790;0.0000;0.0074;0.0446
1015;-2.3069;-3.3790;0.0000;-0.0039;0.0315
1016;-1.9951;-3.3791;0.0000;-0.0098;0.0137
1017;-1.6832;-3.3792;0.0000;-0.0081;0.0038
1018;-1.3713;-3.3792;0.0000;-0.0051;0.0082
1019;-1.0594;-3.3793;0.0000;-0.0009;0.0050
1020;-0.7475;-3.3795;0.0000;-0.0024;-0.0068
1021;-0.4355;-3.3796;0.0000;-0.0095;-0.0029
1022;-0.1236;-3.3796;0.0000;-0.0143;0.0068
1023;0.1882;-3.3797;0.0000;-0.0145;0.0042
1024;0.5001;-3.3798;0.0000;-0.0256;-0.0005
1025;0.8120;-3.3798;0.0000;-0.0468;0.0001
1026;1.1237;-3.3798;0.0000;-0.0448;-0.0054
1027;1.4355;-3.3798;0.0000;-0.0432;-0.0143
1028;1.7474;-3.3797;0.0000;-0.0496;-0.0211
1029;2.0592;-3.3797;0.0000;-0.0351;-0.0243
1030;2.3712;-3.3796;0.0000;-0.0161;-0.0157
1031;2.6833;-3.3792;0.0000;-0.0208;-0.0083
1032;2.9941;-3.3787;0.0000;-0.0313;-0.0149
1033;3.2984;-3.3828;0.0000;-0.0341;-0.0215
1034;3.5769;-3.4131;0.0000;-0.0192;-0.0199
1035;-4.3183;-3.6373;0.0000;0.0430;0.0738
1036;-4.0082;-3.6496;0.0000;0.0532;0.0648
1037;-3.7021;-3.6504;0.0000;0.0385;0.0512
1038;-3.3945;-3.6498;0.0000;0.0221;0.0586
1039;-3.0850;-3.6495;0.0000;0.0226;0.0654
1040;-2.7742;-3.6494;0.0000;0.0205;0.0557
1041;-2.4627;-3.6493;0.0000;0.0018;0.0476
1042;-2.1509;-3.6493;0.0000;-0.0126;0.0390
1043;-1.8391;-3.6494;0.0000;-0.0044;0.0238
1044;-1.5272;-3.6494;0.0000;-0.0047;0.0196
1045;-1.2153;-3.6496;0.0000;-0.0042;0.0234
1046;-0.9034;-3.6496;0.0000;-0.0037;0.0111
1047;-0.5914;-3.6497;0.0000;-0.0116;-0.0083
1048;-0.2796;-3.6498;0.0000;-0.0157;-0.0087
1049;0.0323;-3.6498;0.0000;-0.0152;-0.0001
1050;0.3442;-3.6499;0.0000;-0.0213;-0.0036
1051;0.6561;-3.6499;0.0000;-0.0401;-0.0080
1052;0.9678;-3.6500;0.0000;-0.0499;-0.0057
1053;1.2796;-3.6499;0.0000;-0.0433;-0.0035
1054;1.5915;-3.6499;0.0000;-0.0488;-0.0045
1055;1.9032;-3.6498;0.0000;-0.0436;-0.0087
1056;2.2152;-3.6498;0.0000;-0.0217;-0.0166
1057;2.5274;-3.6497;0.0000;-0.0159;-0.0185
1058;2.8398;-3.6497;0.0000;-0.0271;-0.0081
1059;3.1530;-3.6516;0.0000;-0.0336;-0.0071
1060;3.4719;-3.6639;0.0000;-0.0235;-0.0164
1061;-4.4046;-3.9119;0.0000;0.0278;0.0651
1062;-4.1447;-3.9195;0.0000;0.0458;0.0661
1063;-3.8514;-3.9208;0.0000;0.0618;0.0646
1064;-3.5478;-3.9207;0.0000;0.0465;0.0753
1065;-3.2398;-3.9204;0.0000;0.0165;0.0878
1066;-2.9297;-3.9202;0.0000;0.0214;0.0795
1067;-2.6184;-3.9201;0.0000;0.0144;0.0644
1068;-2.3068;-3.9200;0.0000;-0.0123;0.0557
1069;-1.9950;-3.9200;0.0000;-0.0026;0.0497
1070;-1.6831;-3.9200;0.0000;0.0083;0.0439
1071;-1.3711;-3.9201;0.0000;-0.0105;0.0321
1072;-1.0593;-3.9201;0.0000;-0.0130;0.0235
1073;-0.7474;-3.9201;0.0000;-0.0127;0.0190
1074;-0.4355;-3.9201;0.0000;-0.0145;0.0086
1075;-0.1235;-3.9201;0.0000;-0.0142;0.0043
1076;0.1883;-3.9202;0.0000;-0.0247;0.0043
1077;0.5002;-3.9202;0.0000;-0.0321;0.0008
1078;0.8120;-3.9201;0.0000;-0.0443;-0.0015
1079;1.1238;-3.9201;0.0000;-0.0428;-0.0018
1080;1.4356;-3.9201;0.0000;-0.0400;-0.0076
1081;1.7474;-3.9200;0.0000;-0.0402;-0.0142
1082;2.0593;-3.9199;0.0000;-0.0310;-0.0164
1083;2.3712;-3.9198;0.0000;-0.0237;-0.0140
1084;2.6830;-3.9198;0.0000;-0.0255;-0.0102
1085;2.9939;-3.9203;0.0000;-0.0355;-0.0043
1086;3.3022;-3.9226;0.0000;-0.0394;-0.0034
1087;3.6065;-3.9277;0.0000;-0.0232;-0.0180
1088;-4.3204;-4.1976;0.0000;0.0252;0.0640
1089;-4.0090;-4.1921;0.0000;0.0542;0.0716
1090;-3.7023;-4.1923;0.0000;0.0664;0.0804
1091;-3.3944;-4.1922;0.0000;0.0308;0.0779
1092;-3.0847;-4.1920;0.0000;0.0189;0.0675
1093;-2.7738;-4.1918;0.0000;0.0247;0.0569
1094;-2.4622;-4.1915;0.0000;0.0054;0.0520
1095;-2.1505;-4.1914;0.0000;-0.0069;0.0483
1096;-1.8387;-4.1913;0.0000;0.0105;0.0488
1097;-1.5267;-4.1912;0.0000;-0.0012;0.0482
1098;-1.2148;-4.1912;0.0000;-0.0150;0.0313
1099;-0.9029;-4.1911;0.0000;-0.0166;0.0197
1100;-0.5910;-4.1909;0.0000;-0.0233;0.0200
1101;-0.2792;-4.1909;0.0000;-0.0205;0.0147
1102;0.0327;-4.1908;0.0000;-0.0244;0.0072
1103;0.3446;-4.1907;0.0000;-0.0292;0.0078
1104;0.6564;-4.1906;0.0000;-0.0355;0.0076
1105;0.9682;-4.1905;0.0000;-0.0391;-0.0013
1106;1.2801;-4.1903;0.0000;-0.0348;-0.0072
1107;1.5919;-4.1901;0.0000;-0.0404;-0.0082
1108;1.9038;-4.1900;0.0000;-0.0385;-0.0151
1109;2.2156;-4.1898;0.0000;-0.0294;-0.0176
1110;2.5277;-4.1897;0.0000;-0.0225;-0.0103
1111;2.8398;-4.1897;0.0000;-0.0298;-0.0115
1112;3.1528;-4.1897;0.0000;-0.0418;-0.0132
1113;3.4719;-4.1845;0.0000;-0.0315;-0.0185
1114;-4.3922;-4.4856;0.0000;0.0195;0.0616
1115;-4.1333;-4.4670;0.0000;0.0446;0.0733
1116;-3.8455;-4.4664;0.0000;0.0609;0.0788
1117;-3.5442;-4.4660;0.0000;0.0472;0.0736
1118;-3.2370;-4.4655;0.0000;0.0296;0.0561
1119;-2.9270;-4.4650;0.0000;0.0283;0.0353
1120;-2.6158;-4.4646;0.0000;0.0173;0.0297
1121;-2.3041;-4.4642;0.0000;0.0077;0.0383
1122;-1.9922;-4.4639;0.0000;0.0025;0.0456
1123;-1.6803;-4.4636;0.0000;-0.0016;0.0462
1124;-1.3684;-4.4633;0.0000;-0.0059;0.0359
1125;-1.0565;-4.4630;0.0000;-0.0121;0.0222
1126;-0.7446;-4.4626;0.0000;-0.0307;0.0205
1127;-0.4327;-4.4624;0.0000;-0.0331;0.0188
1128;-0.1209;-4.4621;0.0000;-0.0273;0.0124
1129;0.1910;-4.4618;0.0000;-0.0344;0.0119
1130;0.5029;-4.4615;0.0000;-0.0321;0.0072
1131;0.8147;-4.4612;0.0000;-0.0302;-0.0035
1132;1.1266;-4.4608;0.0000;-0.0314;-0.0036
1133;1.4384;-4.4604;0.0000;-0.0438;0.0056
1134;1.7502;-4.4601;0.0000;-0.0472;0.0079
1135;2.0621;-4.4596;0.0000;-0.0295;0.0019
1136;2.3739;-4.4594;0.0000;-0.0162;-0.0031
1137;2.6854;-4.4592;0.0000;-0.0209;-0.0122
1138;2.9952;-4.4589;0.0000;-0.0365;-0.0233
1139;3.2995;-4.4569;0.0000;-0.0291;-0.0208
1140;3.5809;-4.4326;0.0000;-0.0252;-0.0221
1141;-4.2907;-4.7464;0.0000;0.0319;0.0641
1142;-3.9908;-4.7451;0.0000;0.0510;0.0709
1143;-3.6887;-4.7429;0.0000;0.0514;0.0625
1144;-3.3822;-4.7416;0.0000;0.0364;0.0466
1145;-3.0729;-4.7405;0.0000;0.0317;0.0362
1146;-2.7620;-4.7395;0.0000;0.0184;0.0324
1147;-2.4504;-4.7388;0.0000;0.0119;0.0321
1148;-2.1386;-4.7381;0.0000;0.0093;0.0359
1149;-1.8266;-4.7375;0.0000;-0.0007;0.0323
1150;-1.5146;-4.7368;0.0000;0.0009;0.0215
1151;-1.2026;-4.7361;0.0000;-0.0001;0.0208
1152;-0.8906;-4.7354;0.0000;-0.0323;0.0273
1153;-0.5788;-4.7348;0.0000;-0.0353;0.0265
1154;-0.2668;-4.7341;0.0000;-0.0289;0.0171
1155;0.0451;-4.7335;0.0000;-0.0424;0.0152
1156;0.3569;-4.7328;0.0000;-0.0407;0.0070
1157;0.6688;-4.7321;0.0000;-0.0269;-0.0022
1158;0.9808;-4.7314;0.0000;-0.0248;0.0022
1159;1.2927;-4.7307;0.0000;-0.0344;-0.0009
1160;1.6046;-4.7300;0.0000;-0.0474;0.0027
1161;1.9165;-4.7293;0.0000;-0.0369;0.0131
1162;2.2285;-4.7285;0.0000;-0.0207;0.0058
1163;2.5408;-4.7279;0.0000;-0.0198;-0.0076
1164;2.8538;-4.7268;0.0000;-0.0240;-0.0147
1165;3.1702;-4.7237;0.0000;-0.0228;-0.0168
1166;3.5002;-4.7133;0.0000;-0.0234;-0.0049
1167;-4.3932;-5.0024;0.0000;0.0361;0.0384
1168;-4.1134;-5.0231;0.0000;0.0318;0.0528
1169;-3.8163;-5.0210;0.0000;0.0414;0.0522
1170;-3.5114;-5.0189;0.0000;0.0419;0.0460
1171;-3.2026;-5.0172;0.0000;0.0353;0.0402
1172;-2.8919;-5.0157;0.0000;0.0268;0.0471
1173;-2.5803;-5.0143;0.0000;0.0157;0.0491
1174;-2.2684;-5.0132;0.0000;0.0166;0.0354
1175;-1.9562;-5.0120;0.0000;0.0097;0.0222
1176;-1.6442;-5.0108;0.0000;-0.0025;0.0141
1177;-1.3320;-5.0096;0.0000;0.0047;0.0248
1178;-1.0199;-5.0085;0.0000;-0.0168;0.0353
1179;-0.7079;-5.0073;0.0000;-0.0321;0.0280
1180;-0.3958;-5.0062;0.0000;-0.0219;0.0181
1181;-0.0837;-5.0050;0.0000;-0.0363;0.0088
1182;0.2283;-5.0039;0.0000;-0.0469;0.0026
1183;0.5403;-5.0026;0.0000;-0.0376;0.0044
1184;0.8523;-5.0015;0.0000;-0.0345;0.0126
1185;1.1644;-5.0003;0.0000;-0.0362;0.0111
1186;1.4764;-4.9991;0.0000;-0.0403;0.0019
1187;1.7884;-4.9979;0.0000;-0.0380;0.0041
1188;2.1004;-4.9967;0.0000;-0.0216;0.0084
1189;2.4124;-4.9955;0.0000;-0.0218;-0.0066
1190;2.7237;-4.9942;0.0000;-0.0264;-0.0155
1191;3.0320;-4.9921;0.0000;-0.0210;-0.0090
1192;3.3294;-4.9869;0.0000;-0.0206;-0.0019
1193;3.5891;-4.9831;0.0000;-0.0325;0.0001
