# Units: length:mm angle:deg time:s strain:% 
# Stage: image-000015
stage;index;relative_time;date
"image-000015";16;15.0000;"2022-09-26T12:01:05.387"
# Name : Surface_xy
id;x;y;z;epsilon_x;epsilon_y
0;-4.5219;5.6702;0.0000;-0.2689;0.7375
1;-4.2104;5.6702;0.0000;-0.2376;0.7370
2;-3.8988;5.6705;0.0000;-0.2179;0.8565
3;-3.5871;5.6705;0.0000;-0.1921;0.8871
4;-3.2754;5.6706;0.0000;-0.2099;0.8457
5;-2.9638;5.6707;0.0000;-0.2571;0.8265
6;-2.6523;5.6708;0.0000;-0.2303;0.8193
7;-2.3406;5.6709;0.0000;-0.1949;0.8347
8;-2.0290;5.6711;0.0000;-0.2036;0.8180
9;-1.7172;5.6712;0.0000;-0.1945;0.7992
10;-1.4055;5.6712;0.0000;-0.2157;0.8104
11;-1.0939;5.6712;0.0000;-0.2394;0.8584
12;-0.7823;5.6711;0.0000;-0.2447;0.8623
13;-0.4708;5.6712;0.0000;-0.2223;0.8576
14;-0.1591;5.6713;0.0000;-0.2426;0.8493
15;0.1524;5.6713;0.0000;-0.2611;0.8416
16;0.4640;5.6713;0.0000;-0.2441;0.8755
17;0.7756;5.6712;0.0000;-0.2465;0.8863
18;1.0871;5.6710;0.0000;-0.2498;0.8661
19;1.3985;5.6710;0.0000;-0.2610;0.8729
20;1.7101;5.6708;0.0000;-0.2234;0.8122
21;2.0218;5.6709;0.0000;-0.2270;0.8002
22;2.3333;5.6710;0.0000;-0.2122;0.8519
23;2.6451;5.6711;0.0000;-0.1772;0.8251
24;2.9568;5.6710;0.0000;-0.2115;0.7588
25;3.2684;5.6711;0.0000;-0.2297;0.7832
26;3.5800;5.6712;0.0000;-0.2420;0.7800
27;3.8284;5.5613;0.0000;-0.2587;0.7725
28;3.8271;5.2466;0.0000;-0.2647;0.7949
29;3.8257;4.9318;0.0000;-0.2521;0.8011
30;3.8244;4.6169;0.0000;-0.2790;0.8524
31;3.8230;4.3018;0.0000;-0.3024;0.8842
32;3.8218;3.9867;0.0000;-0.3050;0.8755
33;3.8207;3.6717;0.0000;-0.2794;0.8847
34;3.8195;3.3566;0.0000;-0.2614;0.8839
35;3.8184;3.0415;0.0000;-0.2617;0.8624
36;3.8173;2.7266;0.0000;-0.2705;0.8279
37;3.8163;2.4118;0.0000;-0.2786;0.7987
38;3.8153;2.0969;0.0000;-0.2988;0.8416
39;3.8144;1.7819;0.0000;-0.3029;0.8949
40;3.8135;1.4668;0.0000;-0.3050;0.8579
41;3.8127;1.1519;0.0000;-0.2562;0.7903
42;3.8118;0.8372;0.0000;-0.2905;0.7364
43;3.8110;0.5227;0.0000;-0.3022;0.7122
44;3.8103;0.2081;0.0000;-0.2522;0.7592
45;3.8094;-0.1067;0.0000;-0.2786;0.8176
46;3.8085;-0.4216;0.0000;-0.3385;0.8263
47;3.8078;-0.7365;0.0000;-0.2637;0.8372
48;3.8069;-1.0514;0.0000;-0.2861;0.8800
49;3.8061;-1.3666;0.0000;-0.2998;0.9373
50;3.8052;-1.6819;0.0000;-0.3262;0.8911
51;3.8044;-1.9970;0.0000;-0.2704;0.8715
52;3.8036;-2.3119;0.0000;-0.2490;0.8280
53;3.8028;-2.6267;0.0000;-0.2435;0.7407
54;3.8021;-2.9412;0.0000;-0.2499;0.7146
55;3.8013;-3.2558;0.0000;-0.2413;0.7249
56;3.8005;-3.5704;0.0000;-0.2181;0.7275
57;3.7996;-3.8849;0.0000;-0.2165;0.7233
58;3.7987;-4.1995;0.0000;-0.2264;0.7362
59;3.7980;-4.5142;0.0000;-0.2426;0.7796
60;3.7971;-4.8289;0.0000;-0.3046;0.7929
61;3.7963;-5.1438;0.0000;-0.3263;0.7950
62;3.7957;-5.4586;0.0000;-0.3132;0.8113
63;3.5310;-5.5316;0.0000;-0.2722;0.8459
64;3.2195;-5.5334;0.0000;-0.2415;0.8098
65;2.9079;-5.5351;0.0000;-0.2635;0.7557
66;2.5964;-5.5369;0.0000;-0.2552;0.7812
67;2.2849;-5.5386;0.0000;-0.2343;0.7926
68;1.9733;-5.5403;0.0000;-0.2439;0.7719
69;1.6617;-5.5420;0.0000;-0.2035;0.7629
70;1.3500;-5.5437;0.0000;-0.1733;0.8090
71;1.0381;-5.5454;0.0000;-0.2204;0.7983
72;0.7267;-5.5471;0.0000;-0.2584;0.7744
73;0.4152;-5.5489;0.0000;-0.2191;0.8056
74;0.1034;-5.5506;0.0000;-0.1951;0.8030
75;-0.2083;-5.5523;0.0000;-0.2221;0.7833
76;-0.5198;-5.5541;0.0000;-0.2442;0.7977
77;-0.8313;-5.5558;0.0000;-0.2410;0.7776
78;-1.1429;-5.5574;0.0000;-0.2476;0.7199
79;-1.4544;-5.5590;0.0000;-0.2615;0.6960
80;-1.7659;-5.5607;0.0000;-0.2412;0.7232
81;-2.0775;-5.5623;0.0000;-0.2308;0.7460
82;-2.3891;-5.5641;0.0000;-0.2492;0.7872
83;-2.7006;-5.5658;0.0000;-0.2694;0.8005
84;-3.0121;-5.5673;0.0000;-0.2630;0.7449
85;-3.3236;-5.5691;0.0000;-0.2504;0.7583
86;-3.6351;-5.5708;0.0000;-0.2308;0.7824
87;-3.9467;-5.5723;0.0000;-0.2364;0.7909
88;-4.2583;-5.5739;0.0000;-0.2394;0.8156
89;-4.5687;-5.5517;0.0000;-0.2471;0.8219
90;-4.6188;-5.2822;0.0000;-0.2655;0.7600
91;-4.6189;-4.9676;0.0000;-0.2680;0.7351
92;-4.6191;-4.6530;0.0000;-0.2308;0.7435
93;-4.6193;-4.3384;0.0000;-0.2287;0.7520
94;-4.6196;-4.0237;0.0000;-0.2353;0.8185
95;-4.6200;-3.7086;0.0000;-0.2344;0.8891
96;-4.6202;-3.3936;0.0000;-0.2602;0.8323
97;-4.6206;-3.0788;0.0000;-0.2506;0.7743
98;-4.6209;-2.7642;0.0000;-0.2558;0.7607
99;-4.6212;-2.4494;0.0000;-0.3135;0.8304
100;-4.6215;-2.1343;0.0000;-0.3295;0.8588
101;-4.6218;-1.8194;0.0000;-0.2979;0.8604
102;-4.6220;-1.5044;0.0000;-0.3063;0.8707
103;-4.6222;-1.1893;0.0000;-0.3434;0.7984
104;-4.6225;-0.8747;0.0000;-0.3268;0.6974
105;-4.6228;-0.5603;0.0000;-0.2914;0.6634
106;-4.6232;-0.2459;0.0000;-0.2500;0.7719
107;-4.6233;0.0691;0.0000;-0.2948;0.8510
108;-4.6235;0.3841;0.0000;-0.3370;0.8495
109;-4.6237;0.6991;0.0000;-0.3348;0.8794
110;-4.6240;1.0143;0.0000;-0.3154;0.9176
111;-4.6242;1.3294;0.0000;-0.3271;0.9204
112;-4.6245;1.6446;0.0000;-0.3265;0.9414
113;-4.6247;1.9600;0.0000;-0.3508;0.9564
114;-4.6248;2.2752;0.0000;-0.3409;0.8639
115;-4.6250;2.5900;0.0000;-0.2940;0.8492
116;-4.6251;2.9052;0.0000;-0.3144;0.9792
117;-4.6253;3.2207;0.0000;-0.3468;1.0166
118;-4.6258;3.5361;0.0000;-0.3075;0.9578
119;-4.6263;3.8513;0.0000;-0.3129;0.9172
120;-4.6268;4.1664;0.0000;-0.3203;0.8497
121;-4.6274;4.4813;0.0000;-0.2898;0.8303
122;-4.6278;4.7963;0.0000;-0.3074;0.9445
123;-4.6282;5.1117;0.0000;-0.3153;0.9294
124;-4.6288;5.4267;0.0000;-0.2637;0.8410
125;-4.3311;5.3919;0.0000;-0.2508;0.8095
126;-4.0292;5.3876;0.0000;-0.2233;0.8327
127;-3.7239;5.3848;0.0000;-0.2099;0.8736
128;-3.4155;5.3839;0.0000;-0.2053;0.8765
129;-3.1053;5.3837;0.0000;-0.2371;0.8720
130;-2.7946;5.3837;0.0000;-0.2505;0.8582
131;-2.4833;5.3836;0.0000;-0.1974;0.8310
132;-2.1718;5.3836;0.0000;-0.2006;0.8236
133;-1.8604;5.3838;0.0000;-0.2167;0.8314
134;-1.5490;5.3837;0.0000;-0.2186;0.8409
135;-1.2376;5.3835;0.0000;-0.2354;0.8590
136;-0.9262;5.3833;0.0000;-0.2488;0.8653
137;-0.6149;5.3832;0.0000;-0.2262;0.8580
138;-0.3034;5.3834;0.0000;-0.2319;0.8626
139;0.0079;5.3834;0.0000;-0.2885;0.8802
140;0.3190;5.3833;0.0000;-0.2821;0.8915
141;0.6303;5.3830;0.0000;-0.2596;0.8749
142;0.9416;5.3827;0.0000;-0.2399;0.8506
143;1.2531;5.3826;0.0000;-0.2430;0.8520
144;1.5644;5.3825;0.0000;-0.2387;0.8370
145;1.8758;5.3825;0.0000;-0.2201;0.7993
146;2.1871;5.3825;0.0000;-0.2216;0.8054
147;2.4975;5.3826;0.0000;-0.1876;0.8235
148;2.8051;5.3831;0.0000;-0.1972;0.8006
149;3.1041;5.3841;0.0000;-0.2263;0.7864
150;3.3843;5.3863;0.0000;-0.2368;0.7896
151;3.6260;5.3783;0.0000;-0.2562;0.7819
152;-4.4273;5.1075;0.0000;-0.2828;0.9406
153;-4.1540;5.1058;0.0000;-0.2430;0.9289
154;-3.8619;5.1011;0.0000;-0.2231;0.8932
155;-3.5594;5.0994;0.0000;-0.2190;0.8862
156;-3.2520;5.0990;0.0000;-0.2228;0.9004
157;-2.9422;5.0988;0.0000;-0.2356;0.8980
158;-2.6315;5.0989;0.0000;-0.2177;0.8739
159;-2.3203;5.0990;0.0000;-0.1862;0.8667
160;-2.0089;5.0989;0.0000;-0.2374;0.8985
161;-1.6978;5.0988;0.0000;-0.2568;0.9150
162;-1.3866;5.0986;0.0000;-0.2417;0.9167
163;-1.0753;5.0983;0.0000;-0.2334;0.9109
164;-0.7641;5.0982;0.0000;-0.2301;0.8919
165;-0.4527;5.0982;0.0000;-0.2244;0.8992
166;-0.1414;5.0981;0.0000;-0.2864;0.9147
167;0.1695;5.0978;0.0000;-0.3364;0.9078
168;0.4804;5.0976;0.0000;-0.2890;0.8820
169;0.7916;5.0975;0.0000;-0.2494;0.8418
170;1.1029;5.0973;0.0000;-0.2283;0.8212
171;1.4142;5.0971;0.0000;-0.2448;0.8183
172;1.7254;5.0971;0.0000;-0.2360;0.8060
173;2.0366;5.0971;0.0000;-0.2155;0.8014
174;2.3475;5.0969;0.0000;-0.2100;0.8004
175;2.6568;5.0969;0.0000;-0.2008;0.8014
176;2.9615;5.0972;0.0000;-0.2220;0.7965
177;3.2586;5.0975;0.0000;-0.2263;0.7788
178;3.5500;5.0992;0.0000;-0.2390;0.7826
179;-4.3085;4.8307;0.0000;-0.2864;0.9617
180;-4.0097;4.8208;0.0000;-0.2479;0.9391
181;-3.7085;4.8181;0.0000;-0.2271;0.9054
182;-3.4027;4.8175;0.0000;-0.2232;0.8814
183;-3.0940;4.8174;0.0000;-0.2183;0.8699
184;-2.7838;4.8175;0.0000;-0.2159;0.8868
185;-2.4729;4.8175;0.0000;-0.1966;0.9335
186;-2.1616;4.8173;0.0000;-0.2307;0.9812
187;-1.8506;4.8172;0.0000;-0.2844;0.9972
188;-1.5396;4.8170;0.0000;-0.2746;0.9725
189;-1.2285;4.8167;0.0000;-0.2295;0.9334
190;-0.9171;4.8165;0.0000;-0.2279;0.9149
191;-0.6059;4.8164;0.0000;-0.2495;0.9185
192;-0.2948;4.8163;0.0000;-0.2658;0.9309
193;0.0163;4.8162;0.0000;-0.3064;0.9179
194;0.3272;4.8161;0.0000;-0.3157;0.8841
195;0.6383;4.8159;0.0000;-0.2651;0.8722
196;0.9495;4.8158;0.0000;-0.2313;0.8657
197;1.2608;4.8155;0.0000;-0.2478;0.8492
198;1.5719;4.8154;0.0000;-0.2503;0.8385
199;1.8830;4.8154;0.0000;-0.2188;0.8381
200;2.1942;4.8151;0.0000;-0.2092;0.8224
201;2.5040;4.8150;0.0000;-0.2274;0.8050
202;2.8101;4.8149;0.0000;-0.2315;0.8138
203;3.1065;4.8150;0.0000;-0.2341;0.8077
204;3.3839;4.8126;0.0000;-0.2308;0.7995
205;3.6228;4.8131;0.0000;-0.2467;0.8133
206;-4.4012;4.5702;0.0000;-0.2932;0.8652
207;-4.1425;4.5440;0.0000;-0.2748;0.8721
208;-3.8546;4.5393;0.0000;-0.2527;0.8756
209;-3.5539;4.5389;0.0000;-0.2365;0.8677
210;-3.2472;4.5392;0.0000;-0.2405;0.8769
211;-2.9380;4.5393;0.0000;-0.2257;0.9024
212;-2.6274;4.5392;0.0000;-0.2056;0.9412
213;-2.3164;4.5389;0.0000;-0.2187;0.9740
214;-2.0053;4.5386;0.0000;-0.2532;0.9921
215;-1.6942;4.5385;0.0000;-0.2780;1.0062
216;-1.3832;4.5384;0.0000;-0.2647;0.9726
217;-1.0720;4.5383;0.0000;-0.2365;0.9243
218;-0.7608;4.5381;0.0000;-0.2738;0.9197
219;-0.4498;4.5380;0.0000;-0.2838;0.9185
220;-0.1388;4.5377;0.0000;-0.2606;0.9093
221;0.1725;4.5376;0.0000;-0.2748;0.9132
222;0.4835;4.5375;0.0000;-0.2889;0.9094
223;0.7945;4.5373;0.0000;-0.2741;0.9006
224;1.1057;4.5371;0.0000;-0.2512;0.9039
225;1.4168;4.5369;0.0000;-0.2451;0.8970
226;1.7281;4.5368;0.0000;-0.2304;0.8825
227;2.0392;4.5368;0.0000;-0.2026;0.8648
228;2.3499;4.5367;0.0000;-0.2297;0.8470
229;2.6583;4.5364;0.0000;-0.2536;0.8423
230;2.9614;4.5364;0.0000;-0.2404;0.8454
231;3.2564;4.5362;0.0000;-0.2322;0.8581
232;3.5482;4.5246;0.0000;-0.2678;0.8681
233;-4.3258;4.2778;0.0000;-0.2947;0.8334
234;-4.0149;4.2645;0.0000;-0.2806;0.8288
235;-3.7089;4.2630;0.0000;-0.2594;0.8325
236;-3.4017;4.2631;0.0000;-0.2577;0.8662
237;-3.0928;4.2633;0.0000;-0.2594;0.9042
238;-2.7827;4.2633;0.0000;-0.2409;0.9191
239;-2.4718;4.2631;0.0000;-0.2288;0.9204
240;-2.1608;4.2627;0.0000;-0.2312;0.9163
241;-1.8496;4.2625;0.0000;-0.2484;0.9235
242;-1.5386;4.2622;0.0000;-0.2778;0.9537
243;-1.2275;4.2623;0.0000;-0.2549;0.9656
244;-0.9163;4.2622;0.0000;-0.2704;0.9485
245;-0.6053;4.2619;0.0000;-0.2930;0.9298
246;-0.2942;4.2619;0.0000;-0.2637;0.9051
247;0.0169;4.2617;0.0000;-0.2526;0.8984
248;0.3281;4.2615;0.0000;-0.2773;0.9204
249;0.6392;4.2614;0.0000;-0.2995;0.9216
250;0.9501;4.2612;0.0000;-0.2873;0.9015
251;1.2612;4.2609;0.0000;-0.2475;0.8909
252;1.5724;4.2608;0.0000;-0.2277;0.8810
253;1.8836;4.2608;0.0000;-0.2176;0.8620
254;2.1946;4.2606;0.0000;-0.2116;0.8596
255;2.5040;4.2604;0.0000;-0.2484;0.8687
256;2.8086;4.2602;0.0000;-0.2407;0.8701
257;3.1015;4.2605;0.0000;-0.2255;0.8716
258;3.3728;4.2604;0.0000;-0.2566;0.8763
259;3.6119;4.2302;0.0000;-0.3029;0.8844
260;-4.4103;3.9929;0.0000;-0.3027;0.8901
261;-4.1510;3.9919;0.0000;-0.2859;0.8858
262;-3.8579;3.9894;0.0000;-0.2808;0.8914
263;-3.5546;3.9890;0.0000;-0.2720;0.9003
264;-3.2472;3.9890;0.0000;-0.2720;0.9097
265;-2.9377;3.9890;0.0000;-0.2732;0.9225
266;-2.6273;3.9889;0.0000;-0.2728;0.9188
267;-2.3165;3.9886;0.0000;-0.2477;0.9063
268;-2.0053;3.9883;0.0000;-0.2248;0.9069
269;-1.6941;3.9880;0.0000;-0.2657;0.9053
270;-1.3831;3.9877;0.0000;-0.2836;0.9219
271;-1.0720;3.9877;0.0000;-0.2634;0.9580
272;-0.7609;3.9876;0.0000;-0.2737;0.9562
273;-0.4498;3.9875;0.0000;-0.2634;0.9314
274;-0.1387;3.9874;0.0000;-0.2631;0.9253
275;0.1724;3.9871;0.0000;-0.2859;0.9330
276;0.4834;3.9869;0.0000;-0.2936;0.9433
277;0.7944;3.9868;0.0000;-0.2949;0.9366
278;1.1055;3.9867;0.0000;-0.2681;0.9022
279;1.4166;3.9864;0.0000;-0.2463;0.8669
280;1.7278;3.9864;0.0000;-0.2372;0.8530
281;2.0388;3.9865;0.0000;-0.2130;0.8535
282;2.3493;3.9861;0.0000;-0.2156;0.8721
283;2.6568;3.9855;0.0000;-0.2309;0.8911
284;2.9567;3.9846;0.0000;-0.2372;0.8868
285;3.2429;3.9848;0.0000;-0.2495;0.8764
286;3.5169;3.9865;0.0000;-0.2907;0.8730
287;-4.3279;3.7122;0.0000;-0.3004;0.9439
288;-4.0160;3.7169;0.0000;-0.2830;0.9545
289;-3.7092;3.7159;0.0000;-0.2718;0.9706
290;-3.4016;3.7156;0.0000;-0.2814;0.9818
291;-3.0926;3.7154;0.0000;-0.2780;0.9761
292;-2.7824;3.7153;0.0000;-0.2946;0.9698
293;-2.4718;3.7152;0.0000;-0.3057;0.9589
294;-2.1611;3.7149;0.0000;-0.2609;0.9406
295;-1.8499;3.7146;0.0000;-0.2372;0.9287
296;-1.5387;3.7144;0.0000;-0.2731;0.9216
297;-1.2276;3.7142;0.0000;-0.2731;0.9361
298;-0.9165;3.7139;0.0000;-0.2550;0.9556
299;-0.6054;3.7138;0.0000;-0.2581;0.9642
300;-0.2942;3.7138;0.0000;-0.2664;0.9748
301;0.0168;3.7136;0.0000;-0.2897;0.9702
302;0.3278;3.7133;0.0000;-0.2972;0.9522
303;0.6388;3.7132;0.0000;-0.2940;0.9438
304;0.9499;3.7131;0.0000;-0.2794;0.9381
305;1.2610;3.7130;0.0000;-0.2672;0.9140
306;1.5720;3.7131;0.0000;-0.2582;0.8979
307;1.8831;3.7130;0.0000;-0.2329;0.9046
308;2.1940;3.7128;0.0000;-0.2099;0.9100
309;2.5033;3.7121;0.0000;-0.2148;0.9097
310;2.8076;3.7108;0.0000;-0.2411;0.8981
311;3.0996;3.7093;0.0000;-0.2600;0.8887
312;3.3700;3.7118;0.0000;-0.2616;0.8911
313;3.6100;3.7463;0.0000;-0.2931;0.8846
314;-4.4019;3.4259;0.0000;-0.3162;0.9940
315;-4.1431;3.4427;0.0000;-0.2978;1.0085
316;-3.8544;3.4433;0.0000;-0.2848;1.0133
317;-3.5532;3.4426;0.0000;-0.2824;1.0081
318;-3.2465;3.4423;0.0000;-0.2972;0.9935
319;-2.9374;3.4422;0.0000;-0.2879;0.9863
320;-2.6271;3.4420;0.0000;-0.3041;0.9947
321;-2.3165;3.4419;0.0000;-0.2940;0.9980
322;-2.0054;3.4416;0.0000;-0.2536;0.9784
323;-1.6943;3.4414;0.0000;-0.2657;0.9465
324;-1.3833;3.4411;0.0000;-0.2885;0.9306
325;-1.0722;3.4409;0.0000;-0.2622;0.9165
326;-0.7610;3.4407;0.0000;-0.2485;0.9229
327;-0.4499;3.4406;0.0000;-0.2613;0.9724
328;-0.1388;3.4404;0.0000;-0.2862;0.9968
329;0.1722;3.4403;0.0000;-0.2995;0.9717
330;0.4832;3.4401;0.0000;-0.2896;0.9367
331;0.7942;3.4400;0.0000;-0.2845;0.9279
332;1.1054;3.4399;0.0000;-0.2673;0.9270
333;1.4165;3.4399;0.0000;-0.2690;0.9273
334;1.7275;3.4399;0.0000;-0.2560;0.9446
335;2.0386;3.4398;0.0000;-0.2369;0.9614
336;2.3490;3.4394;0.0000;-0.2362;0.9607
337;2.6571;3.4383;0.0000;-0.2428;0.9506
338;2.9596;3.4366;0.0000;-0.2606;0.9480
339;3.2537;3.4371;0.0000;-0.2518;0.9306
340;3.5443;3.4552;0.0000;-0.2603;0.8994
341;-4.3071;3.1645;0.0000;-0.3142;1.0441
342;-4.0069;3.1688;0.0000;-0.3024;1.0623
343;-3.7058;3.1692;0.0000;-0.3064;1.0528
344;-3.4004;3.1692;0.0000;-0.3161;1.0296
345;-3.0923;3.1692;0.0000;-0.2924;1.0216
346;-2.7823;3.1691;0.0000;-0.2661;1.0246
347;-2.4717;3.1689;0.0000;-0.2889;1.0315
348;-2.1608;3.1686;0.0000;-0.2907;1.0367
349;-1.8499;3.1685;0.0000;-0.2768;1.0298
350;-1.5388;3.1684;0.0000;-0.2823;0.9948
351;-1.2278;3.1682;0.0000;-0.2809;0.9477
352;-0.9167;3.1681;0.0000;-0.2644;0.9361
353;-0.6056;3.1678;0.0000;-0.2578;0.9521
354;-0.2944;3.1675;0.0000;-0.2643;0.9573
355;0.0166;3.1673;0.0000;-0.2837;0.9601
356;0.3277;3.1673;0.0000;-0.2788;0.9616
357;0.6388;3.1672;0.0000;-0.2862;0.9493
358;0.9497;3.1671;0.0000;-0.2964;0.9348
359;1.2608;3.1671;0.0000;-0.2742;0.9363
360;1.5719;3.1671;0.0000;-0.2699;0.9669
361;1.8829;3.1669;0.0000;-0.2612;0.9922
362;2.1937;3.1666;0.0000;-0.2602;0.9888
363;2.5032;3.1659;0.0000;-0.2541;0.9780
364;2.8089;3.1647;0.0000;-0.2459;0.9608
365;3.1053;3.1638;0.0000;-0.2415;0.9383
366;3.3832;3.1685;0.0000;-0.2431;0.9037
367;3.6215;3.1736;0.0000;-0.2569;0.8786
368;-4.4279;2.9014;0.0000;-0.3076;0.9756
369;-4.1473;2.8970;0.0000;-0.3010;0.9933
370;-3.8544;2.8959;0.0000;-0.3088;1.0163
371;-3.5529;2.8960;0.0000;-0.3212;1.0146
372;-3.2465;2.8961;0.0000;-0.3093;1.0161
373;-2.9374;2.8960;0.0000;-0.2667;1.0425
374;-2.6271;2.8959;0.0000;-0.2731;1.0547
375;-2.3164;2.8957;0.0000;-0.2948;1.0277
376;-2.0055;2.8955;0.0000;-0.2932;1.0180
377;-1.6945;2.8953;0.0000;-0.2807;1.0438
378;-1.3834;2.8953;0.0000;-0.2737;1.0325
379;-1.0723;2.8953;0.0000;-0.2809;0.9949
380;-0.7613;2.8951;0.0000;-0.2769;0.9752
381;-0.4502;2.8948;0.0000;-0.2692;0.9435
382;-0.1391;2.8947;0.0000;-0.2641;0.9158
383;0.1721;2.8945;0.0000;-0.2601;0.9193
384;0.4832;2.8944;0.0000;-0.2640;0.9344
385;0.7943;2.8944;0.0000;-0.2910;0.9192
386;1.1053;2.8943;0.0000;-0.2899;0.9125
387;1.4164;2.8942;0.0000;-0.2827;0.9523
388;1.7274;2.8939;0.0000;-0.2843;0.9797
389;2.0383;2.8939;0.0000;-0.2712;0.9631
390;2.3487;2.8935;0.0000;-0.2567;0.9176
391;2.6572;2.8928;0.0000;-0.2489;0.8679
392;2.9613;2.8922;0.0000;-0.2413;0.8374
393;3.2582;2.8925;0.0000;-0.2452;0.8353
394;3.5492;2.8943;0.0000;-0.2619;0.8494
395;-4.3065;2.6335;0.0000;-0.2941;0.8571
396;-4.0065;2.6241;0.0000;-0.2975;0.8705
397;-3.7054;2.6229;0.0000;-0.3201;0.9027
398;-3.4004;2.6231;0.0000;-0.3100;0.9310
399;-3.0922;2.6232;0.0000;-0.2803;0.9552
400;-2.7823;2.6229;0.0000;-0.2732;0.9774
401;-2.4718;2.6228;0.0000;-0.2876;0.9702
402;-2.1610;2.6227;0.0000;-0.2946;0.9354
403;-1.8500;2.6225;0.0000;-0.2933;0.9293
404;-1.5390;2.6223;0.0000;-0.2752;0.9525
405;-1.2278;2.6224;0.0000;-0.2652;0.9502
406;-0.9168;2.6224;0.0000;-0.2833;0.9105
407;-0.6058;2.6222;0.0000;-0.2918;0.8673
408;-0.2947;2.6221;0.0000;-0.2756;0.8564
409;0.0164;2.6220;0.0000;-0.2441;0.8673
410;0.3276;2.6218;0.0000;-0.2520;0.8820
411;0.6387;2.6217;0.0000;-0.2836;0.8917
412;0.9497;2.6218;0.0000;-0.3011;0.8969
413;1.2607;2.6217;0.0000;-0.2897;0.8960
414;1.5718;2.6214;0.0000;-0.2755;0.8712
415;1.8828;2.6212;0.0000;-0.2705;0.8528
416;2.1935;2.6211;0.0000;-0.2517;0.8308
417;2.5031;2.6209;0.0000;-0.2452;0.7835
418;2.8087;2.6207;0.0000;-0.2491;0.7559
419;3.1044;2.6207;0.0000;-0.2492;0.7601
420;3.3808;2.6174;0.0000;-0.2685;0.7893
421;3.6168;2.6125;0.0000;-0.2755;0.8055
422;-4.4005;2.3763;0.0000;-0.3020;0.8180
423;-4.1420;2.3534;0.0000;-0.2924;0.8188
424;-3.8535;2.3500;0.0000;-0.3031;0.8294
425;-3.5529;2.3502;0.0000;-0.3026;0.8778
426;-3.2465;2.3504;0.0000;-0.2862;0.8945
427;-2.9374;2.3504;0.0000;-0.2854;0.8617
428;-2.6272;2.3502;0.0000;-0.2822;0.8377
429;-2.3164;2.3502;0.0000;-0.2807;0.8381
430;-2.0055;2.3502;0.0000;-0.2894;0.8359
431;-1.6946;2.3499;0.0000;-0.2902;0.8335
432;-1.3835;2.3498;0.0000;-0.2577;0.8460
433;-1.0723;2.3499;0.0000;-0.2591;0.8563
434;-0.7612;2.3499;0.0000;-0.2899;0.8451
435;-0.4503;2.3499;0.0000;-0.3000;0.8367
436;-0.1392;2.3497;0.0000;-0.2701;0.8558
437;0.1720;2.3494;0.0000;-0.2498;0.8796
438;0.4831;2.3492;0.0000;-0.2749;0.8837
439;0.7941;2.3492;0.0000;-0.2910;0.8878
440;1.1051;2.3491;0.0000;-0.2936;0.8810
441;1.4161;2.3491;0.0000;-0.2665;0.8373
442;1.7273;2.3490;0.0000;-0.2426;0.7868
443;2.0384;2.3489;0.0000;-0.2477;0.7583
444;2.3487;2.3489;0.0000;-0.2547;0.7464
445;2.6567;2.3487;0.0000;-0.2603;0.7543
446;2.9588;2.3487;0.0000;-0.2576;0.7715
447;3.2515;2.3481;0.0000;-0.2716;0.7816
448;3.5408;2.3317;0.0000;-0.2876;0.7940
449;-4.3256;2.0889;0.0000;-0.3190;0.9023
450;-4.0147;2.0785;0.0000;-0.2835;0.8729
451;-3.7085;2.0776;0.0000;-0.2789;0.8733
452;-3.4013;2.0778;0.0000;-0.2844;0.8656
453;-3.0926;2.0780;0.0000;-0.2975;0.8325
454;-2.7826;2.0780;0.0000;-0.2937;0.8121
455;-2.4720;2.0779;0.0000;-0.2736;0.8201
456;-2.1611;2.0779;0.0000;-0.2787;0.8453
457;-1.8501;2.0777;0.0000;-0.2731;0.8560
458;-1.5390;2.0775;0.0000;-0.2637;0.8678
459;-1.2278;2.0774;0.0000;-0.2555;0.8918
460;-0.9167;2.0774;0.0000;-0.2726;0.9221
461;-0.6057;2.0773;0.0000;-0.2994;0.9529
462;-0.2947;2.0772;0.0000;-0.3048;0.9505
463;0.0163;2.0770;0.0000;-0.2815;0.9237
464;0.3274;2.0767;0.0000;-0.2696;0.9065
465;0.6385;2.0767;0.0000;-0.2751;0.8942
466;0.9495;2.0767;0.0000;-0.2784;0.8746
467;1.2606;2.0767;0.0000;-0.2691;0.8485
468;1.5718;2.0767;0.0000;-0.2401;0.8240
469;1.8829;2.0767;0.0000;-0.2285;0.8177
470;2.1937;2.0768;0.0000;-0.2445;0.8276
471;2.5029;2.0766;0.0000;-0.2692;0.8413
472;2.8069;2.0762;0.0000;-0.2719;0.8517
473;3.0984;2.0761;0.0000;-0.2712;0.8607
474;3.3675;2.0757;0.0000;-0.2852;0.8594
475;3.6064;2.0395;0.0000;-0.2921;0.8579
476;-4.4099;1.8110;0.0000;-0.3298;0.9531
477;-4.1503;1.8064;0.0000;-0.2990;0.9314
478;-3.8573;1.8058;0.0000;-0.2801;0.9101
479;-3.5543;1.8055;0.0000;-0.2729;0.8854
480;-3.2470;1.8057;0.0000;-0.2848;0.8790
481;-2.9377;1.8057;0.0000;-0.2962;0.8932
482;-2.6274;1.8055;0.0000;-0.2800;0.9189
483;-2.3165;1.8054;0.0000;-0.2715;0.9401
484;-2.0056;1.8052;0.0000;-0.2723;0.9493
485;-1.6945;1.8049;0.0000;-0.2699;0.9605
486;-1.3834;1.8047;0.0000;-0.2673;0.9739
487;-1.0723;1.8047;0.0000;-0.2699;0.9905
488;-0.7612;1.8046;0.0000;-0.2777;0.9956
489;-0.4502;1.8044;0.0000;-0.2981;0.9926
490;-0.1392;1.8043;0.0000;-0.3057;0.9672
491;0.1718;1.8042;0.0000;-0.2889;0.9206
492;0.4828;1.8040;0.0000;-0.2662;0.8861
493;0.7940;1.8041;0.0000;-0.2625;0.8762
494;1.1051;1.8042;0.0000;-0.2632;0.8796
495;1.4162;1.8043;0.0000;-0.2516;0.8760
496;1.7274;1.8043;0.0000;-0.2294;0.8918
497;2.0385;1.8042;0.0000;-0.2236;0.9346
498;2.3487;1.8040;0.0000;-0.2557;0.9653
499;2.6559;1.8034;0.0000;-0.2800;0.9712
500;2.9554;1.8024;0.0000;-0.2836;0.9591
501;3.2404;1.8018;0.0000;-0.2838;0.9397
502;3.5107;1.8058;0.0000;-0.2835;0.9208
503;-4.3257;1.5251;0.0000;-0.3194;0.9306
504;-4.0147;1.5334;0.0000;-0.2984;0.9283
505;-3.7087;1.5334;0.0000;-0.2869;0.9149
506;-3.4015;1.5332;0.0000;-0.2794;0.9138
507;-3.0927;1.5331;0.0000;-0.2781;0.9330
508;-2.7827;1.5329;0.0000;-0.2929;0.9485
509;-2.4721;1.5326;0.0000;-0.2839;0.9676
510;-2.1612;1.5325;0.0000;-0.2597;0.9797
511;-1.8500;1.5322;0.0000;-0.2619;0.9677
512;-1.5390;1.5319;0.0000;-0.2881;0.9580
513;-1.2280;1.5318;0.0000;-0.2955;0.9738
514;-0.9170;1.5317;0.0000;-0.2757;0.9717
515;-0.6059;1.5317;0.0000;-0.2683;0.9441
516;-0.2948;1.5316;0.0000;-0.2809;0.9305
517;0.0163;1.5316;0.0000;-0.2839;0.9036
518;0.3273;1.5316;0.0000;-0.2738;0.8538
519;0.6384;1.5316;0.0000;-0.2637;0.8454
520;0.9495;1.5316;0.0000;-0.2611;0.8688
521;1.2607;1.5316;0.0000;-0.2452;0.8818
522;1.5719;1.5317;0.0000;-0.2413;0.8961
523;1.8830;1.5315;0.0000;-0.2401;0.9159
524;2.1938;1.5312;0.0000;-0.2453;0.9432
525;2.5029;1.5308;0.0000;-0.2639;0.9589
526;2.8071;1.5294;0.0000;-0.2792;0.9518
527;3.0996;1.5278;0.0000;-0.2876;0.9349
528;3.3719;1.5300;0.0000;-0.2772;0.9098
529;3.6134;1.5791;0.0000;-0.2836;0.8907
530;-4.3992;1.2343;0.0000;-0.3206;0.9288
531;-4.1418;1.2580;0.0000;-0.2970;0.9303
532;-3.8536;1.2609;0.0000;-0.2895;0.9075
533;-3.5530;1.2607;0.0000;-0.2947;0.8950
534;-3.2467;1.2605;0.0000;-0.2832;0.8988
535;-2.9376;1.2604;0.0000;-0.2741;0.8991
536;-2.6273;1.2601;0.0000;-0.3077;0.9021
537;-2.3167;1.2598;0.0000;-0.2834;0.9224
538;-2.0057;1.2596;0.0000;-0.2480;0.9219
539;-1.6946;1.2595;0.0000;-0.2738;0.8923
540;-1.3836;1.2592;0.0000;-0.2943;0.8824
541;-1.0726;1.2591;0.0000;-0.2955;0.8857
542;-0.7616;1.2591;0.0000;-0.2627;0.8734
543;-0.4504;1.2590;0.0000;-0.2556;0.8475
544;-0.1392;1.2590;0.0000;-0.2594;0.8288
545;0.1719;1.2592;0.0000;-0.2608;0.8129
546;0.4831;1.2593;0.0000;-0.2697;0.8062
547;0.7941;1.2592;0.0000;-0.2733;0.8111
548;1.1052;1.2591;0.0000;-0.2493;0.8222
549;1.4164;1.2592;0.0000;-0.2464;0.8349
550;1.7275;1.2591;0.0000;-0.2554;0.8206
551;2.0385;1.2588;0.0000;-0.2499;0.7955
552;2.3489;1.2584;0.0000;-0.2564;0.8015
553;2.6570;1.2574;0.0000;-0.2617;0.8144
554;2.9597;1.2556;0.0000;-0.2810;0.8237
555;3.2538;1.2564;0.0000;-0.2895;0.8271
556;3.5449;1.2750;0.0000;-0.2764;0.8241
557;-4.3059;0.9762;0.0000;-0.3080;0.9205
558;-4.0064;0.9862;0.0000;-0.2915;0.8985
559;-3.7056;0.9877;0.0000;-0.2874;0.8578
560;-3.4005;0.9879;0.0000;-0.2995;0.8265
561;-3.0924;0.9879;0.0000;-0.2806;0.8218
562;-2.7826;0.9878;0.0000;-0.3006;0.8284
563;-2.4722;0.9874;0.0000;-0.3108;0.8447
564;-2.1613;0.9871;0.0000;-0.2565;0.8664
565;-1.8502;0.9870;0.0000;-0.2560;0.8598
566;-1.5391;0.9869;0.0000;-0.2735;0.8241
567;-1.2281;0.9867;0.0000;-0.2795;0.7860
568;-0.9170;0.9866;0.0000;-0.2621;0.7645
569;-0.6059;0.9867;0.0000;-0.2509;0.7521
570;-0.2947;0.9868;0.0000;-0.2653;0.7354
571;0.0164;0.9868;0.0000;-0.2668;0.7404
572;0.3275;0.9869;0.0000;-0.2646;0.7635
573;0.6386;0.9870;0.0000;-0.2688;0.7673
574;0.9497;0.9869;0.0000;-0.2620;0.7626
575;1.2609;0.9868;0.0000;-0.2535;0.7716
576;1.5720;0.9869;0.0000;-0.2515;0.7629
577;1.8831;0.9869;0.0000;-0.2474;0.7265
578;2.1939;0.9866;0.0000;-0.2603;0.7033
579;2.5035;0.9858;0.0000;-0.2589;0.7134
580;2.8096;0.9839;0.0000;-0.2529;0.7357
581;3.1058;0.9817;0.0000;-0.2727;0.7452
582;3.3812;0.9878;0.0000;-0.2951;0.7512
583;3.6188;0.9997;0.0000;-0.2769;0.7560
584;-4.4272;0.7065;0.0000;-0.3194;0.8776
585;-4.1469;0.7130;0.0000;-0.3079;0.8757
586;-3.8544;0.7146;0.0000;-0.2974;0.8642
587;-3.5531;0.7154;0.0000;-0.2943;0.8365
588;-3.2467;0.7157;0.0000;-0.2919;0.8151
589;-2.9377;0.7156;0.0000;-0.2777;0.8119
590;-2.6275;0.7153;0.0000;-0.3119;0.8137
591;-2.3169;0.7149;0.0000;-0.2862;0.8154
592;-2.0059;0.7146;0.0000;-0.2523;0.8085
593;-1.6948;0.7146;0.0000;-0.2683;0.7824
594;-1.3837;0.7146;0.0000;-0.2590;0.7422
595;-1.0725;0.7146;0.0000;-0.2401;0.6995
596;-0.7613;0.7147;0.0000;-0.2410;0.6915
597;-0.4502;0.7147;0.0000;-0.2654;0.6989
598;-0.1391;0.7148;0.0000;-0.2852;0.7038
599;0.1719;0.7148;0.0000;-0.2881;0.7240
600;0.4830;0.7148;0.0000;-0.2585;0.7360
601;0.7942;0.7147;0.0000;-0.2544;0.7382
602;1.1053;0.7147;0.0000;-0.2650;0.7386
603;1.4164;0.7147;0.0000;-0.2481;0.7373
604;1.7276;0.7148;0.0000;-0.2336;0.7287
605;2.0387;0.7147;0.0000;-0.2543;0.7085
606;2.3494;0.7142;0.0000;-0.2629;0.6953
607;2.6590;0.7126;0.0000;-0.2372;0.7005
608;2.9657;0.7091;0.0000;-0.2486;0.7086
609;3.2659;0.7064;0.0000;-0.2840;0.7129
610;3.5542;0.7154;0.0000;-0.3033;0.7212
611;-4.3064;0.4458;0.0000;-0.3226;0.8421
612;-4.0067;0.4420;0.0000;-0.3204;0.8710
613;-3.7059;0.4424;0.0000;-0.3029;0.8926
614;-3.4008;0.4429;0.0000;-0.2906;0.8777
615;-3.0926;0.4432;0.0000;-0.2712;0.8443
616;-2.7828;0.4430;0.0000;-0.2840;0.8110
617;-2.4723;0.4427;0.0000;-0.2905;0.7685
618;-2.1614;0.4424;0.0000;-0.2531;0.7305
619;-1.8503;0.4424;0.0000;-0.2649;0.7211
620;-1.5393;0.4425;0.0000;-0.2767;0.7129
621;-1.2282;0.4426;0.0000;-0.2403;0.6936
622;-0.9169;0.4427;0.0000;-0.2278;0.6839
623;-0.6057;0.4427;0.0000;-0.2577;0.6876
624;-0.2946;0.4427;0.0000;-0.2744;0.7080
625;0.0165;0.4427;0.0000;-0.2981;0.7319
626;0.3274;0.4427;0.0000;-0.2793;0.7324
627;0.6386;0.4427;0.0000;-0.2487;0.7276
628;0.9498;0.4427;0.0000;-0.2591;0.7378
629;1.2608;0.4426;0.0000;-0.2528;0.7368
630;1.5721;0.4426;0.0000;-0.2256;0.7301
631;1.8833;0.4427;0.0000;-0.2424;0.7329
632;2.1944;0.4426;0.0000;-0.2644;0.7192
633;2.5057;0.4418;0.0000;-0.2325;0.6946
634;2.8180;0.4398;0.0000;-0.2347;0.6897
635;3.1333;0.4371;0.0000;-0.2661;0.6966
636;3.4585;0.4453;0.0000;-0.2972;0.7028
637;-4.4017;0.1847;0.0000;-0.3173;0.8459
638;-4.1429;0.1692;0.0000;-0.3178;0.8264
639;-3.8542;0.1688;0.0000;-0.3217;0.8325
640;-3.5534;0.1699;0.0000;-0.2952;0.8373
641;-3.2469;0.1706;0.0000;-0.2802;0.8049
642;-2.9378;0.1708;0.0000;-0.2749;0.7577
643;-2.6276;0.1707;0.0000;-0.2824;0.7164
644;-2.3168;0.1705;0.0000;-0.2593;0.6840
645;-2.0058;0.1704;0.0000;-0.2452;0.6664
646;-1.6947;0.1704;0.0000;-0.2722;0.6587
647;-1.3836;0.1705;0.0000;-0.2599;0.6540
648;-1.0724;0.1706;0.0000;-0.2314;0.6676
649;-0.7612;0.1707;0.0000;-0.2519;0.6875
650;-0.4501;0.1707;0.0000;-0.2719;0.7043
651;-0.1391;0.1706;0.0000;-0.2803;0.7273
652;0.1720;0.1705;0.0000;-0.2776;0.7411
653;0.4831;0.1706;0.0000;-0.2579;0.7478
654;0.7942;0.1705;0.0000;-0.2626;0.7567
655;1.1053;0.1704;0.0000;-0.2651;0.7558
656;1.4165;0.1704;0.0000;-0.2442;0.7483
657;1.7277;0.1705;0.0000;-0.2244;0.7546
658;2.0390;0.1705;0.0000;-0.2501;0.7730
659;2.3503;0.1703;0.0000;-0.2499;0.7737
660;2.6623;0.1696;0.0000;-0.2277;0.7524
661;2.9758;0.1683;0.0000;-0.2484;0.7456
662;3.2904;0.1689;0.0000;-0.2665;0.7605
663;3.5916;0.1890;0.0000;-0.2874;0.7658
664;-4.3270;-0.0990;0.0000;-0.2890;0.8024
665;-4.0152;-0.1032;0.0000;-0.3156;0.7696
666;-3.7089;-0.1025;0.0000;-0.3128;0.7417
667;-3.4018;-0.1019;0.0000;-0.3021;0.7493
668;-3.0930;-0.1014;0.0000;-0.2847;0.7561
669;-2.7829;-0.1012;0.0000;-0.2731;0.7316
670;-2.4723;-0.1013;0.0000;-0.2706;0.6860
671;-2.1613;-0.1015;0.0000;-0.2542;0.6335
672;-1.8502;-0.1015;0.0000;-0.2524;0.6046
673;-1.5391;-0.1014;0.0000;-0.2546;0.6096
674;-1.2279;-0.1013;0.0000;-0.2346;0.6380
675;-0.9167;-0.1013;0.0000;-0.2445;0.6807
676;-0.6056;-0.1014;0.0000;-0.2710;0.7070
677;-0.2945;-0.1014;0.0000;-0.2710;0.6927
678;0.0166;-0.1016;0.0000;-0.2639;0.6817
679;0.3277;-0.1016;0.0000;-0.2579;0.7179
680;0.6389;-0.1017;0.0000;-0.2657;0.7665
681;0.9500;-0.1018;0.0000;-0.2737;0.7806
682;1.2610;-0.1018;0.0000;-0.2771;0.7870
683;1.5721;-0.1018;0.0000;-0.2444;0.8005
684;1.8834;-0.1017;0.0000;-0.2336;0.8062
685;2.1948;-0.1018;0.0000;-0.2542;0.8204
686;2.5067;-0.1019;0.0000;-0.2399;0.8422
687;2.8209;-0.1021;0.0000;-0.2364;0.8422
688;3.1400;-0.1022;0.0000;-0.2453;0.8276
689;3.4696;-0.1034;0.0000;-0.2611;0.8219
690;-4.4059;-0.3786;0.0000;-0.2778;0.7058
691;-4.1487;-0.3763;0.0000;-0.2965;0.7164
692;-3.8566;-0.3741;0.0000;-0.2951;0.7052
693;-3.5541;-0.3738;0.0000;-0.2986;0.6969
694;-3.2472;-0.3736;0.0000;-0.2985;0.7260
695;-2.9379;-0.3735;0.0000;-0.2823;0.7463
696;-2.6275;-0.3734;0.0000;-0.2862;0.7224
697;-2.3168;-0.3733;0.0000;-0.2833;0.6685
698;-2.0059;-0.3731;0.0000;-0.2541;0.6373
699;-1.6947;-0.3731;0.0000;-0.2353;0.6373
700;-1.3835;-0.3731;0.0000;-0.2292;0.6489
701;-1.0722;-0.3732;0.0000;-0.2251;0.6796
702;-0.7610;-0.3734;0.0000;-0.2575;0.6908
703;-0.4499;-0.3734;0.0000;-0.2732;0.6904
704;-0.1389;-0.3734;0.0000;-0.2597;0.6938
705;0.1723;-0.3735;0.0000;-0.2698;0.7106
706;0.4834;-0.3738;0.0000;-0.2817;0.7658
707;0.7944;-0.3740;0.0000;-0.2700;0.8137
708;1.1056;-0.3741;0.0000;-0.2626;0.8235
709;1.4167;-0.3742;0.0000;-0.2620;0.8279
710;1.7278;-0.3741;0.0000;-0.2554;0.8477
711;2.0390;-0.3741;0.0000;-0.2621;0.8562
712;2.3505;-0.3742;0.0000;-0.2402;0.8657
713;2.6629;-0.3741;0.0000;-0.2285;0.8989
714;2.9766;-0.3737;0.0000;-0.2444;0.8922
715;3.2896;-0.3739;0.0000;-0.2420;0.8493
716;3.5907;-0.3978;0.0000;-0.2629;0.8284
717;-4.3228;-0.6604;0.0000;-0.3088;0.6847
718;-4.0125;-0.6457;0.0000;-0.2801;0.7058
719;-3.7076;-0.6452;0.0000;-0.2640;0.7235
720;-3.4011;-0.6455;0.0000;-0.2745;0.7166
721;-3.0924;-0.6455;0.0000;-0.2863;0.7087
722;-2.7826;-0.6455;0.0000;-0.3061;0.7218
723;-2.4721;-0.6454;0.0000;-0.3003;0.7268
724;-2.1613;-0.6452;0.0000;-0.2719;0.7364
725;-1.8502;-0.6452;0.0000;-0.2345;0.7483
726;-1.5389;-0.6451;0.0000;-0.2290;0.7472
727;-1.2277;-0.6451;0.0000;-0.2281;0.7407
728;-0.9165;-0.6454;0.0000;-0.2341;0.7219
729;-0.6054;-0.6454;0.0000;-0.2611;0.7174
730;-0.2943;-0.6455;0.0000;-0.2579;0.7521
731;0.0169;-0.6456;0.0000;-0.2718;0.7839
732;0.3279;-0.6459;0.0000;-0.3028;0.7900
733;0.6389;-0.6463;0.0000;-0.2844;0.7918
734;0.9500;-0.6465;0.0000;-0.2575;0.8022
735;1.2611;-0.6465;0.0000;-0.2537;0.8117
736;1.5723;-0.6465;0.0000;-0.2489;0.8393
737;1.8835;-0.6466;0.0000;-0.2687;0.8722
738;2.1948;-0.6466;0.0000;-0.2566;0.8701
739;2.5068;-0.6466;0.0000;-0.2312;0.8625
740;2.8201;-0.6465;0.0000;-0.2354;0.8597
741;3.1358;-0.6469;0.0000;-0.2452;0.8493
742;3.4567;-0.6504;0.0000;-0.2502;0.8434
743;-4.3965;-0.9522;0.0000;-0.3365;0.7235
744;-4.1370;-0.9180;0.0000;-0.2863;0.7392
745;-3.8510;-0.9171;0.0000;-0.2476;0.7644
746;-3.5518;-0.9176;0.0000;-0.2526;0.7679
747;-3.2461;-0.9176;0.0000;-0.2707;0.7495
748;-2.9373;-0.9176;0.0000;-0.3014;0.7545
749;-2.6273;-0.9177;0.0000;-0.3044;0.7910
750;-2.3166;-0.9175;0.0000;-0.2831;0.8159
751;-2.0057;-0.9175;0.0000;-0.2622;0.8136
752;-1.6945;-0.9175;0.0000;-0.2443;0.8041
753;-1.3834;-0.9175;0.0000;-0.2372;0.8016
754;-1.0721;-0.9175;0.0000;-0.2184;0.7895
755;-0.7609;-0.9175;0.0000;-0.2423;0.7783
756;-0.4497;-0.9177;0.0000;-0.2572;0.7795
757;-0.1386;-0.9179;0.0000;-0.2539;0.7954
758;0.1725;-0.9181;0.0000;-0.3042;0.8162
759;0.4834;-0.9183;0.0000;-0.2903;0.8027
760;0.7946;-0.9186;0.0000;-0.2519;0.7718
761;1.1057;-0.9188;0.0000;-0.2603;0.7751
762;1.4168;-0.9188;0.0000;-0.2611;0.8008
763;1.7280;-0.9191;0.0000;-0.2588;0.8233
764;2.0392;-0.9191;0.0000;-0.2614;0.8387
765;2.3506;-0.9190;0.0000;-0.2329;0.8279
766;2.6625;-0.9191;0.0000;-0.2158;0.7948
767;2.9742;-0.9196;0.0000;-0.2331;0.7959
768;3.2821;-0.9239;0.0000;-0.2584;0.8385
769;3.5683;-0.9072;0.0000;-0.2740;0.8557
770;-4.2920;-1.1897;0.0000;-0.3140;0.7939
771;-3.9997;-1.1905;0.0000;-0.2586;0.7956
772;-3.7028;-1.1905;0.0000;-0.2426;0.7788
773;-3.3993;-1.1902;0.0000;-0.2561;0.7755
774;-3.0918;-1.1899;0.0000;-0.2773;0.8061
775;-2.7823;-1.1900;0.0000;-0.2905;0.8413
776;-2.4718;-1.1901;0.0000;-0.2743;0.8760
777;-2.1609;-1.1900;0.0000;-0.2658;0.8728
778;-1.8499;-1.1898;0.0000;-0.2725;0.8457
779;-1.5389;-1.1897;0.0000;-0.2614;0.8586
780;-1.2277;-1.1898;0.0000;-0.2240;0.8747
781;-0.9164;-1.1899;0.0000;-0.2342;0.8646
782;-0.6053;-1.1899;0.0000;-0.2689;0.8552
783;-0.2942;-1.1900;0.0000;-0.2592;0.8366
784;0.0170;-1.1903;0.0000;-0.2760;0.8262
785;0.3280;-1.1906;0.0000;-0.2873;0.8295
786;0.6391;-1.1908;0.0000;-0.2452;0.8084
787;0.9503;-1.1909;0.0000;-0.2508;0.7845
788;1.2614;-1.1911;0.0000;-0.2725;0.7911
789;1.5725;-1.1912;0.0000;-0.2575;0.7947
790;1.8837;-1.1914;0.0000;-0.2563;0.7828
791;2.1951;-1.1914;0.0000;-0.2382;0.7842
792;2.5073;-1.1913;0.0000;-0.2097;0.7886
793;2.8215;-1.1912;0.0000;-0.2196;0.8091
794;3.1415;-1.1921;0.0000;-0.2602;0.8509
795;3.4795;-1.1962;0.0000;-0.2858;0.8936
796;-4.3954;-1.4257;0.0000;-0.3127;0.8523
797;-4.1357;-1.4625;0.0000;-0.2680;0.8341
798;-3.8501;-1.4643;0.0000;-0.2476;0.8109
799;-3.5513;-1.4632;0.0000;-0.2462;0.7884
800;-3.2457;-1.4625;0.0000;-0.2614;0.8024
801;-2.9370;-1.4625;0.0000;-0.2757;0.8305
802;-2.6270;-1.4626;0.0000;-0.2771;0.8302
803;-2.3163;-1.4626;0.0000;-0.2603;0.8368
804;-2.0052;-1.4624;0.0000;-0.2560;0.8603
805;-1.6942;-1.4623;0.0000;-0.2710;0.8945
806;-1.3831;-1.4625;0.0000;-0.2542;0.9249
807;-1.0719;-1.4625;0.0000;-0.2380;0.9188
808;-0.7608;-1.4624;0.0000;-0.2653;0.9102
809;-0.4497;-1.4626;0.0000;-0.2781;0.9115
810;-0.1386;-1.4626;0.0000;-0.2881;0.8968
811;0.1724;-1.4629;0.0000;-0.2795;0.8676
812;0.4835;-1.4631;0.0000;-0.2493;0.8362
813;0.7947;-1.4632;0.0000;-0.2381;0.8180
814;1.1059;-1.4633;0.0000;-0.2486;0.8025
815;1.4171;-1.4635;0.0000;-0.2501;0.7920
816;1.7283;-1.4636;0.0000;-0.2523;0.7915
817;2.0394;-1.4636;0.0000;-0.2516;0.7992
818;2.3509;-1.4635;0.0000;-0.2167;0.8180
819;2.6626;-1.4634;0.0000;-0.2151;0.8413
820;2.9738;-1.4630;0.0000;-0.2436;0.8688
821;3.2810;-1.4631;0.0000;-0.2740;0.9028
822;3.5643;-1.4858;0.0000;-0.3069;0.9253
823;-4.3222;-1.7179;0.0000;-0.2837;0.8542
824;-4.0117;-1.7356;0.0000;-0.2482;0.8264
825;-3.7067;-1.7362;0.0000;-0.2356;0.8215
826;-3.4004;-1.7352;0.0000;-0.2620;0.8362
827;-3.0920;-1.7349;0.0000;-0.2715;0.8213
828;-2.7822;-1.7349;0.0000;-0.2564;0.7912
829;-2.4715;-1.7349;0.0000;-0.2506;0.7691
830;-2.1606;-1.7348;0.0000;-0.2532;0.7932
831;-1.8495;-1.7348;0.0000;-0.2682;0.8344
832;-1.5385;-1.7350;0.0000;-0.2739;0.8378
833;-1.2274;-1.7351;0.0000;-0.2516;0.8497
834;-0.9162;-1.7350;0.0000;-0.2617;0.8879
835;-0.6051;-1.7351;0.0000;-0.2669;0.9078
836;-0.2940;-1.7352;0.0000;-0.2992;0.9221
837;0.0169;-1.7354;0.0000;-0.2935;0.9186
838;0.3280;-1.7355;0.0000;-0.2514;0.8815
839;0.6392;-1.7356;0.0000;-0.2381;0.8488
840;0.9504;-1.7356;0.0000;-0.2324;0.8292
841;1.2617;-1.7357;0.0000;-0.2335;0.8110
842;1.5728;-1.7358;0.0000;-0.2412;0.8048
843;1.8841;-1.7360;0.0000;-0.2577;0.8166
844;2.1954;-1.7361;0.0000;-0.2453;0.8282
845;2.5071;-1.7361;0.0000;-0.2301;0.8346
846;2.8195;-1.7359;0.0000;-0.2345;0.8504
847;3.1337;-1.7360;0.0000;-0.2533;0.8754
848;3.4542;-1.7419;0.0000;-0.2993;0.8804
849;-4.4054;-2.0001;0.0000;-0.2840;0.8545
850;-4.1485;-2.0039;0.0000;-0.2478;0.8418
851;-3.8562;-2.0078;0.0000;-0.2383;0.8302
852;-3.5536;-2.0078;0.0000;-0.2452;0.8557
853;-3.2465;-2.0073;0.0000;-0.2662;0.8595
854;-2.9372;-2.0072;0.0000;-0.2478;0.8279
855;-2.6268;-2.0071;0.0000;-0.2353;0.8159
856;-2.3159;-2.0071;0.0000;-0.2508;0.8360
857;-2.0049;-2.0071;0.0000;-0.2631;0.8501
858;-1.6938;-2.0072;0.0000;-0.2678;0.8324
859;-1.3827;-2.0073;0.0000;-0.2579;0.8151
860;-1.0715;-2.0075;0.0000;-0.2668;0.8391
861;-0.7606;-2.0076;0.0000;-0.2929;0.8670
862;-0.4495;-2.0078;0.0000;-0.2837;0.8889
863;-0.1385;-2.0079;0.0000;-0.2882;0.9044
864;0.1726;-2.0080;0.0000;-0.2583;0.8804
865;0.4838;-2.0080;0.0000;-0.2472;0.8490
866;0.7950;-2.0080;0.0000;-0.2388;0.8425
867;1.1062;-2.0080;0.0000;-0.2198;0.8322
868;1.4175;-2.0081;0.0000;-0.2301;0.8138
869;1.7287;-2.0083;0.0000;-0.2620;0.8069
870;2.0398;-2.0084;0.0000;-0.2760;0.7998
871;2.3511;-2.0084;0.0000;-0.2412;0.7986
872;2.6626;-2.0084;0.0000;-0.2320;0.8188
873;2.9739;-2.0082;0.0000;-0.2457;0.8482
874;3.2830;-2.0070;0.0000;-0.2862;0.8597
875;3.5883;-2.0020;0.0000;-0.2935;0.8651
876;-4.3260;-2.2803;0.0000;-0.2724;0.8344
877;-4.0149;-2.2782;0.0000;-0.2205;0.8238
878;-3.7084;-2.2796;0.0000;-0.2244;0.8385
879;-3.4011;-2.2797;0.0000;-0.2529;0.8492
880;-3.0921;-2.2796;0.0000;-0.2517;0.8465
881;-2.7820;-2.2795;0.0000;-0.2364;0.8532
882;-2.4712;-2.2796;0.0000;-0.2514;0.8832
883;-2.1603;-2.2797;0.0000;-0.2578;0.9124
884;-1.8492;-2.2797;0.0000;-0.2542;0.9136
885;-1.5381;-2.2797;0.0000;-0.2673;0.8898
886;-1.2270;-2.2798;0.0000;-0.2590;0.8609
887;-0.9159;-2.2800;0.0000;-0.2793;0.8492
888;-0.6049;-2.2801;0.0000;-0.2939;0.8599
889;-0.2939;-2.2804;0.0000;-0.2881;0.8683
890;0.0172;-2.2805;0.0000;-0.2669;0.8599
891;0.3284;-2.2804;0.0000;-0.2518;0.8362
892;0.6395;-2.2804;0.0000;-0.2566;0.8201
893;0.9506;-2.2805;0.0000;-0.2404;0.8107
894;1.2619;-2.2804;0.0000;-0.2267;0.7944
895;1.5731;-2.2805;0.0000;-0.2521;0.7875
896;1.8842;-2.2806;0.0000;-0.2763;0.7859
897;2.1954;-2.2807;0.0000;-0.2609;0.7859
898;2.5070;-2.2808;0.0000;-0.2313;0.7994
899;2.8193;-2.2809;0.0000;-0.2241;0.8126
900;3.1328;-2.2796;0.0000;-0.2669;0.8169
901;3.4523;-2.2681;0.0000;-0.2855;0.8302
902;-4.4000;-2.5635;0.0000;-0.2583;0.7861
903;-4.1419;-2.5505;0.0000;-0.2275;0.7939
904;-3.8538;-2.5511;0.0000;-0.2362;0.8103
905;-3.5528;-2.5519;0.0000;-0.2486;0.8191
906;-3.2462;-2.5519;0.0000;-0.2414;0.8180
907;-2.9369;-2.5519;0.0000;-0.2401;0.8254
908;-2.6265;-2.5520;0.0000;-0.2630;0.8309
909;-2.3158;-2.5522;0.0000;-0.2772;0.8323
910;-2.0048;-2.5524;0.0000;-0.2450;0.8487
911;-1.6936;-2.5523;0.0000;-0.2458;0.8784
912;-1.3825;-2.5523;0.0000;-0.2728;0.8853
913;-1.0714;-2.5523;0.0000;-0.2543;0.8568
914;-0.7602;-2.5525;0.0000;-0.2669;0.8389
915;-0.4492;-2.5527;0.0000;-0.2874;0.8285
916;-0.1382;-2.5529;0.0000;-0.2825;0.8042
917;0.1729;-2.5529;0.0000;-0.2628;0.7956
918;0.4841;-2.5528;0.0000;-0.2512;0.8073
919;0.7952;-2.5527;0.0000;-0.2579;0.8043
920;1.1063;-2.5526;0.0000;-0.2585;0.7959
921;1.4175;-2.5526;0.0000;-0.2590;0.7946
922;1.7286;-2.5528;0.0000;-0.2515;0.7781
923;2.0399;-2.5529;0.0000;-0.2502;0.7710
924;2.3512;-2.5530;0.0000;-0.2483;0.7801
925;2.6625;-2.5534;0.0000;-0.2244;0.7785
926;2.9730;-2.5539;0.0000;-0.2322;0.7597
927;3.2776;-2.5501;0.0000;-0.2888;0.7492
928;3.5593;-2.5201;0.0000;-0.2738;0.7595
929;-4.3053;-2.8258;0.0000;-0.2314;0.7538
930;-4.0060;-2.8240;0.0000;-0.2316;0.7719
931;-3.7052;-2.8243;0.0000;-0.2613;0.7868
932;-3.4000;-2.8243;0.0000;-0.2412;0.7858
933;-3.0916;-2.8242;0.0000;-0.2381;0.7966
934;-2.7817;-2.8243;0.0000;-0.2674;0.7927
935;-2.4712;-2.8244;0.0000;-0.2830;0.7668
936;-2.1603;-2.8245;0.0000;-0.2639;0.7452
937;-1.8492;-2.8247;0.0000;-0.2325;0.7593
938;-1.5380;-2.8248;0.0000;-0.2572;0.8051
939;-1.2269;-2.8248;0.0000;-0.2593;0.8301
940;-0.9157;-2.8248;0.0000;-0.2374;0.8243
941;-0.6045;-2.8249;0.0000;-0.2607;0.8101
942;-0.2934;-2.8251;0.0000;-0.2806;0.7862
943;0.0176;-2.8251;0.0000;-0.2815;0.7650
944;0.3286;-2.8250;0.0000;-0.2642;0.7731
945;0.6398;-2.8251;0.0000;-0.2578;0.7947
946;0.9510;-2.8250;0.0000;-0.2561;0.8120
947;1.2621;-2.8250;0.0000;-0.2644;0.8197
948;1.5731;-2.8250;0.0000;-0.2736;0.8103
949;1.8843;-2.8251;0.0000;-0.2546;0.7911
950;2.1957;-2.8252;0.0000;-0.2454;0.7766
951;2.5078;-2.8255;0.0000;-0.2419;0.7670
952;2.8219;-2.8259;0.0000;-0.2254;0.7577
953;3.1414;-2.8253;0.0000;-0.2554;0.7435
954;3.4747;-2.8125;0.0000;-0.2641;0.7255
955;-4.4245;-3.0862;0.0000;-0.2373;0.7842
956;-4.1456;-3.0942;0.0000;-0.2220;0.8137
957;-3.8534;-3.0964;0.0000;-0.2439;0.8393
958;-3.5522;-3.0966;0.0000;-0.2566;0.8362
959;-3.2457;-3.0965;0.0000;-0.2286;0.8250
960;-2.9366;-3.0966;0.0000;-0.2596;0.8149
961;-2.6264;-3.0966;0.0000;-0.2778;0.7916
962;-2.3157;-3.0966;0.0000;-0.2678;0.7707
963;-2.0047;-3.0967;0.0000;-0.2454;0.7571
964;-1.6935;-3.0968;0.0000;-0.2387;0.7481
965;-1.3823;-3.0971;0.0000;-0.2635;0.7594
966;-1.0712;-3.0971;0.0000;-0.2437;0.7933
967;-0.7600;-3.0972;0.0000;-0.2463;0.8163
968;-0.4489;-3.0974;0.0000;-0.2720;0.8002
969;-0.1379;-3.0974;0.0000;-0.2760;0.7798
970;0.1733;-3.0973;0.0000;-0.2635;0.7900
971;0.4844;-3.0973;0.0000;-0.2653;0.8000
972;0.7954;-3.0973;0.0000;-0.2746;0.7917
973;1.1066;-3.0974;0.0000;-0.2368;0.7920
974;1.4179;-3.0974;0.0000;-0.2478;0.7984
975;1.7290;-3.0974;0.0000;-0.2808;0.7929
976;2.0401;-3.0974;0.0000;-0.2720;0.7760
977;2.3515;-3.0974;0.0000;-0.2578;0.7507
978;2.6636;-3.0975;0.0000;-0.2318;0.7373
979;2.9768;-3.0974;0.0000;-0.2290;0.7437
980;3.2874;-3.0971;0.0000;-0.2495;0.7370
981;3.5677;-3.0973;0.0000;-0.2525;0.7230
982;-4.3037;-3.3564;0.0000;-0.2510;0.8534
983;-4.0050;-3.3677;0.0000;-0.2314;0.8894
984;-3.7045;-3.3694;0.0000;-0.2475;0.8902
985;-3.3996;-3.3692;0.0000;-0.2323;0.8715
986;-3.0914;-3.3690;0.0000;-0.2260;0.8615
987;-2.7815;-3.3689;0.0000;-0.2594;0.8529
988;-2.4710;-3.3689;0.0000;-0.2678;0.8376
989;-2.1601;-3.3690;0.0000;-0.2674;0.8165
990;-1.8491;-3.3690;0.0000;-0.2518;0.7956
991;-1.5379;-3.3691;0.0000;-0.2511;0.7720
992;-1.2268;-3.3693;0.0000;-0.2401;0.7778
993;-0.9155;-3.3695;0.0000;-0.2455;0.8005
994;-0.6044;-3.3697;0.0000;-0.2633;0.7968
995;-0.2933;-3.3696;0.0000;-0.2673;0.7835
996;0.0178;-3.3696;0.0000;-0.2655;0.7898
997;0.3289;-3.3697;0.0000;-0.2476;0.8136
998;0.6401;-3.3697;0.0000;-0.2680;0.8179
999;0.9511;-3.3696;0.0000;-0.2775;0.8012
1000;1.2623;-3.3696;0.0000;-0.2503;0.7900
1001;1.5734;-3.3696;0.0000;-0.2576;0.7785
1002;1.8846;-3.3696;0.0000;-0.2796;0.7695
1003;2.1959;-3.3696;0.0000;-0.2664;0.7620
1004;2.5080;-3.3694;0.0000;-0.2436;0.7446
1005;2.8221;-3.3690;0.0000;-0.2346;0.7256
1006;3.1414;-3.3693;0.0000;-0.2434;0.7225
1007;3.4740;-3.3823;0.0000;-0.2369;0.7304
1008;-4.3963;-3.6129;0.0000;-0.2594;0.8809
1009;-4.1393;-3.6380;0.0000;-0.2568;0.8752
1010;-3.8521;-3.6425;0.0000;-0.2436;0.8419
1011;-3.5519;-3.6422;0.0000;-0.2393;0.8273
1012;-3.2457;-3.6417;0.0000;-0.2192;0.8364
1013;-2.9366;-3.6416;0.0000;-0.2314;0.8415
1014;-2.6263;-3.6415;0.0000;-0.2454;0.8382
1015;-2.3154;-3.6414;0.0000;-0.2593;0.8310
1016;-2.0045;-3.6413;0.0000;-0.2737;0.8114
1017;-1.6934;-3.6414;0.0000;-0.2627;0.7851
1018;-1.3823;-3.6415;0.0000;-0.2341;0.7809
1019;-1.0710;-3.6417;0.0000;-0.2264;0.7893
1020;-0.7599;-3.6419;0.0000;-0.2638;0.7773
1021;-0.4488;-3.6419;0.0000;-0.2620;0.7735
1022;-0.1376;-3.6419;0.0000;-0.2548;0.7872
1023;0.1735;-3.6420;0.0000;-0.2604;0.7890
1024;0.4847;-3.6421;0.0000;-0.2347;0.8015
1025;0.7959;-3.6420;0.0000;-0.2735;0.8185
1026;1.1068;-3.6419;0.0000;-0.2975;0.8144
1027;1.4179;-3.6419;0.0000;-0.2634;0.8013
1028;1.7291;-3.6419;0.0000;-0.2766;0.7869
1029;2.0402;-3.6418;0.0000;-0.2798;0.7792
1030;2.3514;-3.6417;0.0000;-0.2323;0.7706
1031;2.6629;-3.6413;0.0000;-0.2257;0.7538
1032;2.9730;-3.6410;0.0000;-0.2495;0.7310
1033;3.2767;-3.6453;0.0000;-0.2472;0.7070
1034;3.5546;-3.6759;0.0000;-0.2275;0.7043
1035;-4.3214;-3.9016;0.0000;-0.2498;0.8504
1036;-4.0123;-3.9141;0.0000;-0.2516;0.8114
1037;-3.7071;-3.9149;0.0000;-0.2498;0.7956
1038;-3.4004;-3.9144;0.0000;-0.2377;0.8138
1039;-3.0917;-3.9141;0.0000;-0.2347;0.8199
1040;-2.7816;-3.9139;0.0000;-0.2372;0.8107
1041;-2.4709;-3.9138;0.0000;-0.2415;0.8184
1042;-2.1599;-3.9138;0.0000;-0.2646;0.8249
1043;-1.8489;-3.9137;0.0000;-0.2745;0.8089
1044;-1.5379;-3.9137;0.0000;-0.2568;0.7971
1045;-1.2266;-3.9139;0.0000;-0.2191;0.7789
1046;-0.9153;-3.9142;0.0000;-0.2381;0.7517
1047;-0.6042;-3.9142;0.0000;-0.2573;0.7378
1048;-0.2931;-3.9142;0.0000;-0.2450;0.7373
1049;0.0181;-3.9142;0.0000;-0.2632;0.7439
1050;0.3292;-3.9143;0.0000;-0.2578;0.7691
1051;0.6403;-3.9144;0.0000;-0.2392;0.7969
1052;0.9515;-3.9143;0.0000;-0.2810;0.8025
1053;1.2625;-3.9143;0.0000;-0.2899;0.8087
1054;1.5736;-3.9142;0.0000;-0.2878;0.8066
1055;1.8845;-3.9141;0.0000;-0.3026;0.7852
1056;2.1957;-3.9141;0.0000;-0.2319;0.7685
1057;2.5074;-3.9138;0.0000;-0.2088;0.7675
1058;2.8192;-3.9139;0.0000;-0.2544;0.7587
1059;3.1317;-3.9160;0.0000;-0.2468;0.7380
1060;3.4499;-3.9284;0.0000;-0.2323;0.7253
1061;-4.4074;-4.1780;0.0000;-0.2480;0.7666
1062;-4.1482;-4.1858;0.0000;-0.2637;0.7729
1063;-3.8559;-4.1873;0.0000;-0.2508;0.7880
1064;-3.5532;-4.1872;0.0000;-0.2365;0.8174
1065;-3.2460;-4.1870;0.0000;-0.2359;0.8288
1066;-2.9366;-4.1868;0.0000;-0.2486;0.8243
1067;-2.6263;-4.1867;0.0000;-0.2571;0.8255
1068;-2.3155;-4.1866;0.0000;-0.2569;0.8279
1069;-2.0044;-4.1865;0.0000;-0.2584;0.8344
1070;-1.6933;-4.1864;0.0000;-0.2686;0.8387
1071;-1.3822;-4.1865;0.0000;-0.2524;0.8184
1072;-1.0711;-4.1865;0.0000;-0.2310;0.7797
1073;-0.7599;-4.1865;0.0000;-0.2247;0.7479
1074;-0.4486;-4.1865;0.0000;-0.2391;0.7359
1075;-0.1374;-4.1864;0.0000;-0.2538;0.7425
1076;0.1737;-4.1865;0.0000;-0.2644;0.7628
1077;0.4848;-4.1868;0.0000;-0.2278;0.7755
1078;0.7961;-4.1868;0.0000;-0.2360;0.7912
1079;1.1072;-4.1867;0.0000;-0.2793;0.8058
1080;1.4183;-4.1866;0.0000;-0.2901;0.8036
1081;1.7293;-4.1865;0.0000;-0.3111;0.7979
1082;2.0403;-4.1863;0.0000;-0.2667;0.7846
1083;2.3516;-4.1861;0.0000;-0.2074;0.7991
1084;2.6628;-4.1861;0.0000;-0.2571;0.8179
1085;2.9729;-4.1867;0.0000;-0.2685;0.8074
1086;3.2806;-4.1891;0.0000;-0.2440;0.8033
1087;3.5842;-4.1943;0.0000;-0.2292;0.7673
1088;-4.3234;-4.4658;0.0000;-0.2552;0.7525
1089;-4.0129;-4.4604;0.0000;-0.2526;0.7585
1090;-3.7072;-4.4608;0.0000;-0.2428;0.7825
1091;-3.4002;-4.4608;0.0000;-0.2455;0.8100
1092;-3.0914;-4.4606;0.0000;-0.2424;0.8138
1093;-2.7813;-4.4604;0.0000;-0.2585;0.8047
1094;-2.4706;-4.4602;0.0000;-0.2655;0.8074
1095;-2.1597;-4.4601;0.0000;-0.2566;0.8240
1096;-1.8486;-4.4600;0.0000;-0.2653;0.8472
1097;-1.5376;-4.4598;0.0000;-0.2580;0.8525
1098;-1.2264;-4.4597;0.0000;-0.2311;0.8315
1099;-0.9151;-4.4596;0.0000;-0.2141;0.8080
1100;-0.6038;-4.4593;0.0000;-0.2374;0.7997
1101;-0.2927;-4.4592;0.0000;-0.2644;0.8085
1102;0.0184;-4.4592;0.0000;-0.2458;0.8082
1103;0.3297;-4.4593;0.0000;-0.2102;0.7852
1104;0.6410;-4.4593;0.0000;-0.2106;0.7739
1105;0.9522;-4.4593;0.0000;-0.2515;0.7820
1106;1.2633;-4.4591;0.0000;-0.2814;0.7961
1107;1.5744;-4.4589;0.0000;-0.2947;0.8120
1108;1.8854;-4.4586;0.0000;-0.2895;0.8268
1109;2.1965;-4.4584;0.0000;-0.2445;0.8581
1110;2.5080;-4.4584;0.0000;-0.2400;0.8815
1111;2.8193;-4.4584;0.0000;-0.2584;0.8600
1112;3.1317;-4.4584;0.0000;-0.2548;0.8220
1113;3.4501;-4.4533;0.0000;-0.2506;0.7961
1114;-4.3950;-4.7557;0.0000;-0.2580;0.7517
1115;-4.1370;-4.7371;0.0000;-0.2495;0.7529
1116;-3.8499;-4.7366;0.0000;-0.2363;0.7460
1117;-3.5496;-4.7364;0.0000;-0.2447;0.7535
1118;-3.2432;-4.7362;0.0000;-0.2428;0.7672
1119;-2.9340;-4.7357;0.0000;-0.2539;0.7715
1120;-2.6238;-4.7353;0.0000;-0.2790;0.7795
1121;-2.3130;-4.7350;0.0000;-0.2676;0.7973
1122;-2.0019;-4.7347;0.0000;-0.2527;0.8114
1123;-1.6908;-4.7344;0.0000;-0.2474;0.8265
1124;-1.3797;-4.7341;0.0000;-0.2436;0.8347
1125;-1.0685;-4.7337;0.0000;-0.2287;0.8288
1126;-0.7572;-4.7333;0.0000;-0.2242;0.8333
1127;-0.4460;-4.7330;0.0000;-0.2593;0.8396
1128;-0.1349;-4.7327;0.0000;-0.2569;0.8363
1129;0.1763;-4.7324;0.0000;-0.2158;0.8199
1130;0.4877;-4.7322;0.0000;-0.1854;0.7952
1131;0.7991;-4.7320;0.0000;-0.2170;0.7833
1132;1.1103;-4.7316;0.0000;-0.2569;0.7920
1133;1.4214;-4.7314;0.0000;-0.2772;0.8157
1134;1.7325;-4.7310;0.0000;-0.2823;0.8431
1135;2.0436;-4.7306;0.0000;-0.2718;0.8629
1136;2.3546;-4.7305;0.0000;-0.2594;0.8750
1137;2.6654;-4.7303;0.0000;-0.2406;0.8757
1138;2.9746;-4.7298;0.0000;-0.2342;0.8436
1139;3.2782;-4.7278;0.0000;-0.2578;0.7958
1140;3.5589;-4.7033;0.0000;-0.2681;0.7776
1141;-4.2940;-5.0183;0.0000;-0.2567;0.7492
1142;-3.9950;-5.0171;0.0000;-0.2383;0.7615
1143;-3.6938;-5.0151;0.0000;-0.2274;0.7617
1144;-3.3881;-5.0140;0.0000;-0.2374;0.7424
1145;-3.0796;-5.0131;0.0000;-0.2491;0.7268
1146;-2.7696;-5.0122;0.0000;-0.2727;0.7421
1147;-2.4589;-5.0116;0.0000;-0.2766;0.7457
1148;-2.1480;-5.0110;0.0000;-0.2607;0.7440
1149;-1.8369;-5.0103;0.0000;-0.2388;0.7612
1150;-1.5255;-5.0097;0.0000;-0.2359;0.7807
1151;-1.2143;-5.0090;0.0000;-0.2484;0.8039
1152;-0.9030;-5.0083;0.0000;-0.2351;0.8207
1153;-0.5918;-5.0076;0.0000;-0.2368;0.8268
1154;-0.2805;-5.0069;0.0000;-0.2464;0.8217
1155;0.0307;-5.0063;0.0000;-0.2347;0.8088
1156;0.3420;-5.0057;0.0000;-0.2038;0.7947
1157;0.6535;-5.0050;0.0000;-0.2033;0.7889
1158;0.9648;-5.0044;0.0000;-0.2312;0.7856
1159;1.2761;-5.0038;0.0000;-0.2369;0.7799
1160;1.5873;-5.0032;0.0000;-0.2476;0.7912
1161;1.8986;-5.0025;0.0000;-0.2574;0.8112
1162;2.2099;-5.0018;0.0000;-0.2599;0.7968
1163;2.5214;-5.0013;0.0000;-0.2671;0.7754
1164;2.8337;-5.0003;0.0000;-0.2499;0.8030
1165;3.1494;-4.9969;0.0000;-0.2429;0.8127
1166;3.4786;-4.9862;0.0000;-0.2808;0.7916
1167;-4.3963;-5.2760;0.0000;-0.2579;0.7717
1168;-4.1173;-5.2970;0.0000;-0.2403;0.7817
1169;-3.8210;-5.2951;0.0000;-0.2236;0.7861
1170;-3.5169;-5.2933;0.0000;-0.2268;0.7682
1171;-3.2090;-5.2916;0.0000;-0.2538;0.7411
1172;-2.8992;-5.2902;0.0000;-0.2741;0.7464
1173;-2.5886;-5.2890;0.0000;-0.2664;0.7605
1174;-2.2774;-5.2878;0.0000;-0.2492;0.7346
1175;-1.9661;-5.2867;0.0000;-0.2404;0.7206
1176;-1.6548;-5.2857;0.0000;-0.2446;0.7264
1177;-1.3435;-5.2846;0.0000;-0.2549;0.7403
1178;-1.0321;-5.2835;0.0000;-0.2392;0.7731
1179;-0.7207;-5.2823;0.0000;-0.2369;0.8005
1180;-0.4093;-5.2812;0.0000;-0.2336;0.8035
1181;-0.0979;-5.2800;0.0000;-0.2187;0.7923
1182;0.2136;-5.2787;0.0000;-0.2101;0.7874
1183;0.5251;-5.2777;0.0000;-0.2249;0.7827
1184;0.8365;-5.2766;0.0000;-0.2410;0.7782
1185;1.1479;-5.2753;0.0000;-0.2075;0.7775
1186;1.4595;-5.2743;0.0000;-0.1983;0.7673
1187;1.7710;-5.2732;0.0000;-0.2350;0.7642
1188;2.0823;-5.2720;0.0000;-0.2444;0.7780
1189;2.3936;-5.2707;0.0000;-0.2508;0.7557
1190;2.7041;-5.2695;0.0000;-0.2764;0.7350
1191;3.0116;-5.2675;0.0000;-0.2544;0.7710
1192;3.3084;-5.2621;0.0000;-0.2446;0.8080
1193;3.5675;-5.2581;0.0000;-0.2978;0.8100
