# Units: length:mm angle:deg time:s strain:% 
# Stage: image-000029
stage;index;relative_time;date
"image-000029";30;29.0000;"2022-09-26T12:01:19.387"
# Name : Surface_xy
id;x;y;z;epsilon_x;epsilon_y
0;-4.4994;5.5961;0.0000;-0.6713;1.3785
1;-4.1891;5.5961;0.0000;-0.6173;1.3912
2;-3.8786;5.5963;0.0000;-0.5664;1.5335
3;-3.5679;5.5963;0.0000;-0.5344;1.5594
4;-3.2573;5.5963;0.0000;-0.5814;1.5153
5;-2.9469;5.5964;0.0000;-0.6441;1.5122
6;-2.6367;5.5965;0.0000;-0.6213;1.4752
7;-2.3262;5.5966;0.0000;-0.5644;1.4578
8;-2.0156;5.5967;0.0000;-0.5604;1.4650
9;-1.7051;5.5968;0.0000;-0.5532;1.4501
10;-1.3944;5.5967;0.0000;-0.5655;1.4853
11;-1.0839;5.5966;0.0000;-0.5838;1.5348
12;-0.7735;5.5965;0.0000;-0.6035;1.5819
13;-0.4630;5.5965;0.0000;-0.6005;1.5820
14;-0.1526;5.5964;0.0000;-0.6200;1.5195
15;0.1579;5.5963;0.0000;-0.6089;1.5304
16;0.4684;5.5958;0.0000;-0.5874;1.5262
17;0.7789;5.5953;0.0000;-0.5870;1.5300
18;1.0895;5.5951;0.0000;-0.5894;1.5955
19;1.3998;5.5948;0.0000;-0.6236;1.5823
20;1.7102;5.5943;0.0000;-0.5980;1.4767
21;2.0206;5.5940;0.0000;-0.5955;1.4432
22;2.3310;5.5940;0.0000;-0.5829;1.4598
23;2.6417;5.5940;0.0000;-0.5706;1.4706
24;2.9520;5.5940;0.0000;-0.6376;1.4489
25;3.2623;5.5939;0.0000;-0.6635;1.4367
26;3.5725;5.5940;0.0000;-0.6788;1.4401
27;3.8198;5.4834;0.0000;-0.6885;1.4673
28;3.8185;5.1664;0.0000;-0.6984;1.4880
29;3.8170;4.8495;0.0000;-0.6768;1.4465
30;3.8154;4.5327;0.0000;-0.6756;1.4828
31;3.8140;4.2156;0.0000;-0.7187;1.5675
32;3.8128;3.8983;0.0000;-0.7249;1.5750
33;3.8117;3.5810;0.0000;-0.6880;1.6276
34;3.8106;3.2636;0.0000;-0.6515;1.6165
35;3.8095;2.9463;0.0000;-0.6218;1.5727
36;3.8085;2.6292;0.0000;-0.6363;1.5398
37;3.8074;2.3121;0.0000;-0.7235;1.5225
38;3.8064;1.9950;0.0000;-0.7564;1.6009
39;3.8055;1.6774;0.0000;-0.7350;1.7292
40;3.8046;1.3597;0.0000;-0.7150;1.6464
41;3.8038;1.0424;0.0000;-0.6732;1.5212
42;3.8030;0.7255;0.0000;-0.7193;1.4895
43;3.8022;0.4086;0.0000;-0.7606;1.4291
44;3.8016;0.0919;0.0000;-0.7127;1.4543
45;3.8009;-0.2251;0.0000;-0.6899;1.5405
46;3.7999;-0.5424;0.0000;-0.7164;1.5734
47;3.7991;-0.8596;0.0000;-0.6644;1.5978
48;3.7982;-1.1768;0.0000;-0.7725;1.6442
49;3.7974;-1.4945;0.0000;-0.8118;1.7016
50;3.7965;-1.8121;0.0000;-0.8210;1.6764
51;3.7957;-2.1297;0.0000;-0.7478;1.6728
52;3.7949;-2.4472;0.0000;-0.6973;1.5878
53;3.7942;-2.7641;0.0000;-0.6513;1.4160
54;3.7935;-3.0807;0.0000;-0.6455;1.3601
55;3.7927;-3.3972;0.0000;-0.6280;1.3380
56;3.7919;-3.7137;0.0000;-0.6310;1.3623
57;3.7910;-4.0303;0.0000;-0.6286;1.3764
58;3.7902;-4.3470;0.0000;-0.5839;1.3945
59;3.7894;-4.6637;0.0000;-0.6111;1.4812
60;3.7886;-4.9808;0.0000;-0.6758;1.5142
61;3.7877;-5.2978;0.0000;-0.6989;1.4768
62;3.7871;-5.6146;0.0000;-0.7039;1.4680
63;3.5235;-5.6883;0.0000;-0.6750;1.4927
64;3.2132;-5.6904;0.0000;-0.6382;1.5107
65;2.9029;-5.6923;0.0000;-0.6512;1.4709
66;2.5925;-5.6941;0.0000;-0.6311;1.4335
67;2.2821;-5.6960;0.0000;-0.5989;1.4595
68;1.9717;-5.6977;0.0000;-0.6046;1.4452
69;1.6613;-5.6993;0.0000;-0.5509;1.4037
70;1.3506;-5.7012;0.0000;-0.4937;1.4423
71;1.0397;-5.7028;0.0000;-0.5268;1.4334
72;0.7292;-5.7044;0.0000;-0.6004;1.4123
73;0.4188;-5.7062;0.0000;-0.6051;1.4870
74;0.1083;-5.7080;0.0000;-0.5639;1.5119
75;-0.2022;-5.7096;0.0000;-0.5697;1.4553
76;-0.5127;-5.7113;0.0000;-0.5960;1.4340
77;-0.8232;-5.7130;0.0000;-0.5912;1.4234
78;-1.1337;-5.7144;0.0000;-0.5804;1.3811
79;-1.4442;-5.7158;0.0000;-0.5988;1.3478
80;-1.7546;-5.7173;0.0000;-0.5595;1.3671
81;-2.0653;-5.7189;0.0000;-0.5279;1.3798
82;-2.3760;-5.7206;0.0000;-0.5458;1.4196
83;-2.6865;-5.7223;0.0000;-0.6329;1.4915
84;-2.9967;-5.7235;0.0000;-0.6404;1.4119
85;-3.3072;-5.7249;0.0000;-0.5662;1.3952
86;-3.6177;-5.7265;0.0000;-0.5538;1.4145
87;-3.9283;-5.7279;0.0000;-0.5715;1.3903
88;-4.2388;-5.7294;0.0000;-0.5816;1.3981
89;-4.5480;-5.7070;0.0000;-0.6108;1.4085
90;-4.5979;-5.4358;0.0000;-0.6311;1.3783
91;-4.5978;-5.1193;0.0000;-0.5676;1.3692
92;-4.5977;-4.8028;0.0000;-0.5428;1.3435
93;-4.5976;-4.4863;0.0000;-0.5824;1.3840
94;-4.5978;-4.1696;0.0000;-0.6531;1.5283
95;-4.5981;-3.8521;0.0000;-0.6384;1.6661
96;-4.5983;-3.5346;0.0000;-0.6344;1.5827
97;-4.5986;-3.2177;0.0000;-0.6122;1.4245
98;-4.5988;-2.9011;0.0000;-0.6318;1.3887
99;-4.5989;-2.5842;0.0000;-0.7357;1.6012
100;-4.5992;-2.2665;0.0000;-0.7357;1.6947
101;-4.5996;-1.9491;0.0000;-0.6859;1.6525
102;-4.5996;-1.6315;0.0000;-0.7126;1.6742
103;-4.5998;-1.3139;0.0000;-0.7582;1.5966
104;-4.6000;-0.9969;0.0000;-0.7399;1.3801
105;-4.6002;-0.6806;0.0000;-0.7218;1.3457
106;-4.6004;-0.3639;0.0000;-0.6956;1.5138
107;-4.6006;-0.0465;0.0000;-0.7378;1.6150
108;-4.6008;0.2708;0.0000;-0.7589;1.5906
109;-4.6010;0.5881;0.0000;-0.7194;1.6234
110;-4.6012;0.9056;0.0000;-0.6795;1.6799
111;-4.6012;1.2231;0.0000;-0.7121;1.6514
112;-4.6015;1.5405;0.0000;-0.6915;1.6673
113;-4.6016;1.8582;0.0000;-0.7497;1.7080
114;-4.6016;2.1758;0.0000;-0.7491;1.5585
115;-4.6016;2.4926;0.0000;-0.6860;1.5226
116;-4.6015;2.8100;0.0000;-0.7018;1.7610
117;-4.6016;3.1282;0.0000;-0.7476;1.8681
118;-4.6021;3.4461;0.0000;-0.7221;1.7765
119;-4.6025;3.7639;0.0000;-0.7390;1.7189
120;-4.6029;4.0815;0.0000;-0.7827;1.5932
121;-4.6037;4.3985;0.0000;-0.7500;1.5748
122;-4.6044;4.7160;0.0000;-0.7168;1.7154
123;-4.6049;5.0339;0.0000;-0.7257;1.6828
124;-4.6056;5.3511;0.0000;-0.6883;1.5324
125;-4.3091;5.3160;0.0000;-0.6522;1.4992
126;-4.0084;5.3116;0.0000;-0.6061;1.5315
127;-3.7043;5.3087;0.0000;-0.5694;1.5845
128;-3.3969;5.3077;0.0000;-0.5566;1.5812
129;-3.0879;5.3074;0.0000;-0.6050;1.5539
130;-2.7783;5.3074;0.0000;-0.6345;1.5330
131;-2.4683;5.3075;0.0000;-0.5744;1.5017
132;-2.1580;5.3074;0.0000;-0.5600;1.4888
133;-1.8476;5.3076;0.0000;-0.5742;1.5018
134;-1.5373;5.3074;0.0000;-0.5759;1.5257
135;-1.2270;5.3071;0.0000;-0.5845;1.5625
136;-0.9167;5.3067;0.0000;-0.5862;1.5923
137;-0.6064;5.3065;0.0000;-0.5946;1.6054
138;-0.2962;5.3065;0.0000;-0.6275;1.6076
139;0.0138;5.3064;0.0000;-0.6669;1.6032
140;0.3239;5.3061;0.0000;-0.6432;1.5860
141;0.6340;5.3055;0.0000;-0.6165;1.5488
142;0.9443;5.3049;0.0000;-0.5888;1.5222
143;1.2546;5.3045;0.0000;-0.5974;1.5276
144;1.5648;5.3042;0.0000;-0.5956;1.4943
145;1.8751;5.3039;0.0000;-0.5742;1.4234
146;2.1853;5.3037;0.0000;-0.5901;1.4073
147;2.4945;5.3037;0.0000;-0.5685;1.4280
148;2.8009;5.3041;0.0000;-0.6018;1.4423
149;3.0987;5.3051;0.0000;-0.6557;1.4550
150;3.3776;5.3073;0.0000;-0.6693;1.4670
151;3.6184;5.2991;0.0000;-0.6881;1.4738
152;-4.4049;5.0295;0.0000;-0.6939;1.6934
153;-4.1327;5.0278;0.0000;-0.6359;1.6755
154;-3.8417;5.0230;0.0000;-0.6124;1.6388
155;-3.5404;5.0212;0.0000;-0.5898;1.6304
156;-3.2340;5.0208;0.0000;-0.5769;1.6270
157;-2.9253;5.0207;0.0000;-0.5878;1.6107
158;-2.6158;5.0207;0.0000;-0.5768;1.5946
159;-2.3057;5.0208;0.0000;-0.5538;1.5875
160;-1.9955;5.0208;0.0000;-0.6164;1.6233
161;-1.6856;5.0206;0.0000;-0.6339;1.6581
162;-1.3755;5.0202;0.0000;-0.6108;1.6562
163;-1.0654;5.0197;0.0000;-0.5737;1.6347
164;-0.7551;5.0193;0.0000;-0.5594;1.6167
165;-0.4449;5.0191;0.0000;-0.6027;1.6367
166;-0.1348;5.0189;0.0000;-0.6868;1.6695
167;0.1749;5.0187;0.0000;-0.7251;1.6656
168;0.4846;5.0183;0.0000;-0.6798;1.6119
169;0.7945;5.0179;0.0000;-0.6355;1.5342
170;1.1046;5.0176;0.0000;-0.5843;1.4789
171;1.4149;5.0170;0.0000;-0.5816;1.4591
172;1.7251;5.0169;0.0000;-0.5746;1.4334
173;2.0352;5.0168;0.0000;-0.5755;1.3948
174;2.3449;5.0165;0.0000;-0.5809;1.3687
175;2.6531;5.0163;0.0000;-0.5766;1.3870
176;2.9567;5.0164;0.0000;-0.6429;1.4272
177;3.2524;5.0166;0.0000;-0.6658;1.4359
178;3.5425;5.0181;0.0000;-0.6698;1.4459
179;-4.2865;4.7507;0.0000;-0.6923;1.7229
180;-3.9888;4.7406;0.0000;-0.6420;1.6868
181;-3.6887;4.7378;0.0000;-0.6227;1.6274
182;-3.3842;4.7372;0.0000;-0.6003;1.5977
183;-3.0767;4.7372;0.0000;-0.5599;1.6077
184;-2.7674;4.7372;0.0000;-0.5518;1.6440
185;-2.4576;4.7373;0.0000;-0.5491;1.6925
186;-2.1475;4.7371;0.0000;-0.6083;1.7495
187;-1.8377;4.7368;0.0000;-0.6876;1.7757
188;-1.5280;4.7365;0.0000;-0.6646;1.7329
189;-1.2180;4.7361;0.0000;-0.5846;1.6582
190;-0.9077;4.7359;0.0000;-0.5480;1.6168
191;-0.5974;4.7355;0.0000;-0.5917;1.6020
192;-0.2875;4.7353;0.0000;-0.6703;1.6065
193;0.0223;4.7349;0.0000;-0.7228;1.6206
194;0.3319;4.7346;0.0000;-0.7082;1.5920
195;0.6417;4.7344;0.0000;-0.6608;1.5534
196;0.9517;4.7341;0.0000;-0.6221;1.5371
197;1.2618;4.7338;0.0000;-0.5904;1.5129
198;1.5719;4.7334;0.0000;-0.5810;1.5025
199;1.8820;4.7333;0.0000;-0.5727;1.4938
200;2.1920;4.7332;0.0000;-0.5777;1.4367
201;2.5008;4.7330;0.0000;-0.6055;1.4028
202;2.8056;4.7325;0.0000;-0.6386;1.4305
203;3.1008;4.7324;0.0000;-0.6746;1.4349
204;3.3769;4.7298;0.0000;-0.6692;1.4146
205;3.6147;4.7302;0.0000;-0.6601;1.4206
206;-4.3786;4.4882;0.0000;-0.7250;1.6127
207;-4.1210;4.4617;0.0000;-0.6955;1.6196
208;-3.8343;4.4571;0.0000;-0.6609;1.6209
209;-3.5347;4.4567;0.0000;-0.6202;1.5949
210;-3.2293;4.4570;0.0000;-0.6020;1.5879
211;-2.9211;4.4570;0.0000;-0.5624;1.6283
212;-2.6116;4.4568;0.0000;-0.5557;1.6978
213;-2.3016;4.4566;0.0000;-0.5770;1.7452
214;-1.9917;4.4562;0.0000;-0.6397;1.7563
215;-1.6819;4.4559;0.0000;-0.6790;1.7549
216;-1.3721;4.4559;0.0000;-0.6304;1.7141
217;-1.0619;4.4557;0.0000;-0.5801;1.6629
218;-0.7518;4.4554;0.0000;-0.6219;1.6341
219;-0.4419;4.4552;0.0000;-0.6694;1.6093
220;-0.1321;4.4547;0.0000;-0.6674;1.5953
221;0.1778;4.4545;0.0000;-0.6677;1.5845
222;0.4876;4.4543;0.0000;-0.6611;1.5630
223;0.7975;4.4540;0.0000;-0.6682;1.5481
224;1.1074;4.4536;0.0000;-0.6387;1.5674
225;1.4174;4.4532;0.0000;-0.5950;1.5758
226;1.7275;4.4529;0.0000;-0.5875;1.5473
227;2.0375;4.4529;0.0000;-0.5746;1.5237
228;2.3470;4.4529;0.0000;-0.6115;1.5130
229;2.6542;4.4524;0.0000;-0.6498;1.4983
230;2.9561;4.4521;0.0000;-0.6576;1.4894
231;3.2499;4.4518;0.0000;-0.6740;1.4919
232;3.5403;4.4400;0.0000;-0.6922;1.5082
233;-4.3033;4.1937;0.0000;-0.7394;1.5764
234;-3.9938;4.1801;0.0000;-0.7061;1.5844
235;-3.6891;4.1786;0.0000;-0.6572;1.5986
236;-3.3831;4.1789;0.0000;-0.6301;1.6165
237;-3.0753;4.1791;0.0000;-0.6260;1.6251
238;-2.7663;4.1789;0.0000;-0.6014;1.6333
239;-2.4566;4.1786;0.0000;-0.5985;1.6472
240;-2.1467;4.1783;0.0000;-0.5894;1.6506
241;-1.8366;4.1780;0.0000;-0.6211;1.6698
242;-1.5267;4.1777;0.0000;-0.6613;1.7145
243;-1.2168;4.1776;0.0000;-0.6144;1.7348
244;-0.9068;4.1775;0.0000;-0.6388;1.7121
245;-0.5970;4.1772;0.0000;-0.6761;1.6769
246;-0.2872;4.1770;0.0000;-0.6438;1.6348
247;0.0229;4.1767;0.0000;-0.6191;1.6083
248;0.3329;4.1764;0.0000;-0.6394;1.6190
249;0.6429;4.1763;0.0000;-0.6766;1.6180
250;0.9526;4.1760;0.0000;-0.6935;1.6042
251;1.2624;4.1754;0.0000;-0.6347;1.5977
252;1.5725;4.1751;0.0000;-0.5929;1.5576
253;1.8825;4.1751;0.0000;-0.5879;1.5155
254;2.1923;4.1750;0.0000;-0.5915;1.5277
255;2.5005;4.1747;0.0000;-0.6476;1.5432
256;2.8038;4.1742;0.0000;-0.6526;1.5330
257;3.0955;4.1743;0.0000;-0.6481;1.5281
258;3.3657;4.1742;0.0000;-0.6826;1.5528
259;3.6038;4.1436;0.0000;-0.7226;1.5839
260;-4.3874;3.9066;0.0000;-0.7434;1.6653
261;-4.1292;3.9055;0.0000;-0.7026;1.6484
262;-3.8373;3.9030;0.0000;-0.6814;1.6386
263;-3.5353;3.9026;0.0000;-0.6520;1.6545
264;-3.2290;3.9028;0.0000;-0.6606;1.6896
265;-2.9207;3.9028;0.0000;-0.6585;1.6983
266;-2.6115;3.9025;0.0000;-0.6587;1.6608
267;-2.3019;3.9022;0.0000;-0.6187;1.6391
268;-1.9918;3.9018;0.0000;-0.5924;1.6526
269;-1.6818;3.9013;0.0000;-0.6485;1.6731
270;-1.3720;3.9010;0.0000;-0.6434;1.6957
271;-1.0620;3.9009;0.0000;-0.6224;1.7098
272;-0.7521;3.9007;0.0000;-0.6562;1.6904
273;-0.4422;3.9007;0.0000;-0.6356;1.6669
274;-0.1321;3.9005;0.0000;-0.6111;1.6651
275;0.1779;3.9002;0.0000;-0.6438;1.6707
276;0.4877;3.8999;0.0000;-0.6737;1.6801
277;0.7975;3.8996;0.0000;-0.6885;1.6723
278;1.1073;3.8993;0.0000;-0.6750;1.6117
279;1.4172;3.8989;0.0000;-0.6369;1.5303
280;1.7272;3.8990;0.0000;-0.6130;1.4891
281;2.0371;3.8990;0.0000;-0.5830;1.4868
282;2.3463;3.8987;0.0000;-0.6078;1.5210
283;2.6526;3.8979;0.0000;-0.6431;1.5634
284;2.9513;3.8968;0.0000;-0.6491;1.5713
285;3.2362;3.8968;0.0000;-0.6578;1.5673
286;3.5091;3.8983;0.0000;-0.6976;1.5678
287;-4.3055;3.6237;0.0000;-0.7086;1.7470
288;-3.9948;3.6284;0.0000;-0.6638;1.7341
289;-3.6891;3.6275;0.0000;-0.6570;1.7298
290;-3.3827;3.6272;0.0000;-0.6792;1.7769
291;-3.0749;3.6270;0.0000;-0.7014;1.8160
292;-2.7661;3.6269;0.0000;-0.6989;1.7848
293;-2.4568;3.6268;0.0000;-0.6759;1.7396
294;-2.1471;3.6265;0.0000;-0.6296;1.7129
295;-1.8371;3.6260;0.0000;-0.6235;1.6924
296;-1.5272;3.6256;0.0000;-0.6443;1.6714
297;-1.2172;3.6254;0.0000;-0.6221;1.6564
298;-0.9072;3.6252;0.0000;-0.6214;1.6612
299;-0.5972;3.6252;0.0000;-0.6327;1.7057
300;-0.2872;3.6250;0.0000;-0.6224;1.7473
301;0.0228;3.6246;0.0000;-0.6336;1.7295
302;0.3327;3.6243;0.0000;-0.6716;1.6949
303;0.6425;3.6241;0.0000;-0.6799;1.6761
304;0.9524;3.6239;0.0000;-0.6681;1.6493
305;1.2622;3.6238;0.0000;-0.6637;1.5871
306;1.5720;3.6239;0.0000;-0.6598;1.5520
307;1.8819;3.6240;0.0000;-0.6164;1.5806
308;2.1916;3.6237;0.0000;-0.6019;1.6150
309;2.4997;3.6228;0.0000;-0.6227;1.6310
310;2.8027;3.6211;0.0000;-0.6418;1.6155
311;3.0935;3.6194;0.0000;-0.6547;1.6124
312;3.3628;3.6218;0.0000;-0.6515;1.6318
313;3.6019;3.6564;0.0000;-0.6975;1.6195
314;-4.3791;3.3351;0.0000;-0.7111;1.8262
315;-4.1213;3.3520;0.0000;-0.6748;1.8377
316;-3.8337;3.3528;0.0000;-0.6714;1.8305
317;-3.5337;3.3521;0.0000;-0.6832;1.8350
318;-3.2283;3.3515;0.0000;-0.7219;1.8269
319;-2.9205;3.3514;0.0000;-0.7134;1.8000
320;-2.6115;3.3514;0.0000;-0.6891;1.7973
321;-2.3019;3.3513;0.0000;-0.6607;1.8019
322;-1.9921;3.3510;0.0000;-0.6447;1.7714
323;-1.6822;3.3506;0.0000;-0.6447;1.6999
324;-1.3723;3.3504;0.0000;-0.6449;1.6475
325;-1.0624;3.3503;0.0000;-0.6098;1.6334
326;-0.7522;3.3500;0.0000;-0.6124;1.6620
327;-0.4423;3.3496;0.0000;-0.6342;1.7226
328;-0.1324;3.3493;0.0000;-0.6274;1.7370
329;0.1776;3.3493;0.0000;-0.6491;1.7039
330;0.4875;3.3491;0.0000;-0.6792;1.6806
331;0.7972;3.3489;0.0000;-0.6746;1.6782
332;1.1072;3.3488;0.0000;-0.6453;1.6640
333;1.4172;3.3489;0.0000;-0.6592;1.6809
334;1.7269;3.3488;0.0000;-0.6645;1.7462
335;2.0367;3.3486;0.0000;-0.6430;1.7887
336;2.3458;3.3480;0.0000;-0.6452;1.7814
337;2.6526;3.3468;0.0000;-0.6368;1.7369
338;2.9541;3.3449;0.0000;-0.6445;1.6980
339;3.2470;3.3450;0.0000;-0.6425;1.6804
340;3.5365;3.3631;0.0000;-0.6526;1.6564
341;-4.2846;3.0715;0.0000;-0.7029;1.9044
342;-3.9856;3.0759;0.0000;-0.6986;1.9097
343;-3.6857;3.0764;0.0000;-0.7110;1.8916
344;-3.3816;3.0763;0.0000;-0.7289;1.8417
345;-3.0747;3.0763;0.0000;-0.7172;1.8107
346;-2.7661;3.0763;0.0000;-0.6682;1.8315
347;-2.4567;3.0761;0.0000;-0.6610;1.8622
348;-2.1470;3.0758;0.0000;-0.6766;1.8628
349;-1.8373;3.0756;0.0000;-0.6769;1.8237
350;-1.5275;3.0757;0.0000;-0.6512;1.7685
351;-1.2175;3.0756;0.0000;-0.6233;1.7286
352;-0.9075;3.0755;0.0000;-0.6097;1.7001
353;-0.5974;3.0751;0.0000;-0.6254;1.6733
354;-0.2874;3.0746;0.0000;-0.6099;1.6723
355;0.0226;3.0744;0.0000;-0.6235;1.7088
356;0.3325;3.0743;0.0000;-0.6517;1.7299
357;0.6424;3.0741;0.0000;-0.6785;1.7196
358;0.9522;3.0739;0.0000;-0.6789;1.7064
359;1.2620;3.0739;0.0000;-0.6518;1.7279
360;1.5719;3.0737;0.0000;-0.6836;1.8033
361;1.8817;3.0734;0.0000;-0.6777;1.8513
362;2.1912;3.0730;0.0000;-0.6636;1.8361
363;2.4994;3.0722;0.0000;-0.6543;1.7976
364;2.8038;3.0709;0.0000;-0.6388;1.7576
365;3.0991;3.0699;0.0000;-0.6297;1.7025
366;3.3759;3.0744;0.0000;-0.6210;1.6264
367;3.6133;3.0794;0.0000;-0.6326;1.5903
368;-4.4050;2.8061;0.0000;-0.6891;1.7614
369;-4.1255;2.8017;0.0000;-0.6889;1.7900
370;-3.8338;2.8008;0.0000;-0.7086;1.8233
371;-3.5335;2.8010;0.0000;-0.7229;1.8127
372;-3.2283;2.8011;0.0000;-0.7352;1.7924
373;-2.9206;2.8011;0.0000;-0.6759;1.8273
374;-2.6115;2.8009;0.0000;-0.6368;1.8664
375;-2.3018;2.8006;0.0000;-0.6563;1.8487
376;-1.9921;2.8004;0.0000;-0.6900;1.8268
377;-1.6824;2.8003;0.0000;-0.6725;1.8533
378;-1.3725;2.8004;0.0000;-0.6308;1.8533
379;-1.0625;2.8004;0.0000;-0.6405;1.7986
380;-0.7526;2.8003;0.0000;-0.6407;1.7513
381;-0.4426;2.8001;0.0000;-0.6058;1.6973
382;-0.1325;2.7997;0.0000;-0.5966;1.6610
383;0.1775;2.7993;0.0000;-0.6190;1.6842
384;0.4875;2.7992;0.0000;-0.6472;1.7132
385;0.7974;2.7991;0.0000;-0.6838;1.6932
386;1.1072;2.7990;0.0000;-0.6739;1.6926
387;1.4171;2.7988;0.0000;-0.6933;1.7426
388;1.7266;2.7982;0.0000;-0.7198;1.7690
389;2.0362;2.7980;0.0000;-0.6784;1.7554
390;2.3454;2.7976;0.0000;-0.6516;1.7056
391;2.6528;2.7969;0.0000;-0.6372;1.6467
392;2.9556;2.7962;0.0000;-0.6195;1.6083
393;3.2515;2.7965;0.0000;-0.6174;1.5713
394;3.5414;2.7982;0.0000;-0.6325;1.5546
395;-4.2843;2.5363;0.0000;-0.6780;1.5341
396;-3.9854;2.5269;0.0000;-0.6822;1.5758
397;-3.6856;2.5257;0.0000;-0.7095;1.6475
398;-3.3817;2.5260;0.0000;-0.7150;1.6805
399;-3.0748;2.5261;0.0000;-0.6966;1.7030
400;-2.7662;2.5258;0.0000;-0.6471;1.7377
401;-2.4567;2.5256;0.0000;-0.6350;1.7302
402;-2.1470;2.5255;0.0000;-0.6589;1.6763
403;-1.8372;2.5253;0.0000;-0.6697;1.6627
404;-1.5273;2.5251;0.0000;-0.6354;1.6952
405;-1.2173;2.5253;0.0000;-0.6475;1.6881
406;-0.9076;2.5255;0.0000;-0.6735;1.6510
407;-0.5977;2.5253;0.0000;-0.6433;1.6187
408;-0.2877;2.5252;0.0000;-0.6084;1.5863
409;0.0223;2.5250;0.0000;-0.5915;1.5803
410;0.3325;2.5246;0.0000;-0.6057;1.6180
411;0.6425;2.5244;0.0000;-0.6731;1.6556
412;0.9522;2.5244;0.0000;-0.6986;1.6633
413;1.2620;2.5242;0.0000;-0.6897;1.6553
414;1.5718;2.5237;0.0000;-0.7044;1.6204
415;1.8814;2.5234;0.0000;-0.6905;1.5757
416;2.1909;2.5232;0.0000;-0.6561;1.5355
417;2.4992;2.5230;0.0000;-0.6309;1.4910
418;2.8037;2.5227;0.0000;-0.6098;1.4665
419;3.0984;2.5227;0.0000;-0.6100;1.4666
420;3.3737;2.5194;0.0000;-0.6412;1.4983
421;3.6088;2.5144;0.0000;-0.6793;1.5267
422;-4.3782;2.2775;0.0000;-0.7020;1.4663
423;-4.1206;2.2544;0.0000;-0.6734;1.4710
424;-3.8332;2.2510;0.0000;-0.6872;1.4910
425;-3.5338;2.2511;0.0000;-0.6868;1.5574
426;-3.2286;2.2514;0.0000;-0.6788;1.5961
427;-2.9207;2.2513;0.0000;-0.6682;1.5728
428;-2.6117;2.2510;0.0000;-0.6371;1.5379
429;-2.3020;2.2510;0.0000;-0.6329;1.5204
430;-1.9921;2.2512;0.0000;-0.6474;1.5010
431;-1.6823;2.2509;0.0000;-0.6368;1.4815
432;-1.3723;2.2508;0.0000;-0.6194;1.4958
433;-1.0623;2.2511;0.0000;-0.6414;1.5276
434;-0.7524;2.2512;0.0000;-0.6617;1.5406
435;-0.4426;2.2511;0.0000;-0.6573;1.5479
436;-0.1327;2.2508;0.0000;-0.6328;1.5690
437;0.1774;2.2504;0.0000;-0.6019;1.6067
438;0.4874;2.2500;0.0000;-0.6466;1.6345
439;0.7973;2.2497;0.0000;-0.6953;1.6463
440;1.1070;2.2497;0.0000;-0.6942;1.6314
441;1.4167;2.2495;0.0000;-0.6739;1.5679
442;1.7266;2.2493;0.0000;-0.6609;1.4962
443;2.0364;2.2493;0.0000;-0.6502;1.4475
444;2.3455;2.2492;0.0000;-0.6402;1.4126
445;2.6523;2.2490;0.0000;-0.6159;1.4116
446;2.9534;2.2489;0.0000;-0.6212;1.4436
447;3.2450;2.2483;0.0000;-0.6535;1.4794
448;3.5331;2.2316;0.0000;-0.7047;1.5159
449;-4.3037;1.9882;0.0000;-0.7163;1.6110
450;-3.9939;1.9778;0.0000;-0.6694;1.5544
451;-3.6889;1.9768;0.0000;-0.6626;1.5502
452;-3.3830;1.9769;0.0000;-0.6578;1.5618
453;-3.0754;1.9771;0.0000;-0.6649;1.5337
454;-2.7665;1.9771;0.0000;-0.6516;1.4891
455;-2.4570;1.9770;0.0000;-0.6333;1.4896
456;-2.1472;1.9770;0.0000;-0.6333;1.5402
457;-1.8373;1.9770;0.0000;-0.6134;1.5694
458;-1.5272;1.9768;0.0000;-0.6169;1.5801
459;-1.2172;1.9768;0.0000;-0.6196;1.6179
460;-0.9072;1.9769;0.0000;-0.6200;1.6786
461;-0.5972;1.9766;0.0000;-0.6568;1.7315
462;-0.2874;1.9765;0.0000;-0.6837;1.7351
463;0.0223;1.9761;0.0000;-0.6574;1.7041
464;0.3323;1.9755;0.0000;-0.6487;1.6803
465;0.6421;1.9752;0.0000;-0.6784;1.6601
466;0.9519;1.9752;0.0000;-0.6716;1.6409
467;1.2618;1.9752;0.0000;-0.6468;1.6094
468;1.5718;1.9752;0.0000;-0.6302;1.5627
469;1.8817;1.9752;0.0000;-0.6337;1.5377
470;2.1913;1.9752;0.0000;-0.6325;1.5506
471;2.4992;1.9752;0.0000;-0.6321;1.5814
472;2.8022;1.9747;0.0000;-0.6381;1.6036
473;3.0925;1.9744;0.0000;-0.6755;1.6287
474;3.3605;1.9739;0.0000;-0.6977;1.6382
475;3.5985;1.9372;0.0000;-0.7227;1.6442
476;-4.3877;1.7083;0.0000;-0.7125;1.6941
477;-4.1291;1.7037;0.0000;-0.6890;1.6645
478;-3.8373;1.7031;0.0000;-0.6694;1.6327
479;-3.5355;1.7027;0.0000;-0.6486;1.6125
480;-3.2293;1.7028;0.0000;-0.6488;1.6152
481;-2.9210;1.7029;0.0000;-0.6579;1.6257
482;-2.6119;1.7028;0.0000;-0.6446;1.6651
483;-2.3022;1.7026;0.0000;-0.6345;1.7145
484;-1.9923;1.7024;0.0000;-0.6052;1.7459
485;-1.6823;1.7021;0.0000;-0.6125;1.7868
486;-1.3723;1.7019;0.0000;-0.6470;1.8240
487;-1.0624;1.7019;0.0000;-0.6238;1.8537
488;-0.7523;1.7016;0.0000;-0.6134;1.8640
489;-0.4424;1.7013;0.0000;-0.6556;1.8557
490;-0.1326;1.7012;0.0000;-0.6775;1.8132
491;0.1773;1.7010;0.0000;-0.6666;1.7232
492;0.4871;1.7006;0.0000;-0.6680;1.6497
493;0.7970;1.7005;0.0000;-0.6504;1.6427
494;1.1070;1.7006;0.0000;-0.6255;1.6689
495;1.4169;1.7007;0.0000;-0.6176;1.6685
496;1.7269;1.7007;0.0000;-0.6237;1.6782
497;2.0367;1.7007;0.0000;-0.6229;1.7229
498;2.3458;1.7004;0.0000;-0.6337;1.7860
499;2.6519;1.6997;0.0000;-0.6512;1.8398
500;2.9502;1.6985;0.0000;-0.6831;1.8220
501;3.2340;1.6978;0.0000;-0.7076;1.7775
502;3.5031;1.7017;0.0000;-0.7151;1.7567
503;-4.3039;1.4203;0.0000;-0.7000;1.6753
504;-3.9941;1.4287;0.0000;-0.6874;1.6986
505;-3.6892;1.4287;0.0000;-0.6679;1.6876
506;-3.3832;1.4283;0.0000;-0.6559;1.6813
507;-3.0755;1.4282;0.0000;-0.6607;1.7131
508;-2.7667;1.4280;0.0000;-0.6549;1.7697
509;-2.4573;1.4275;0.0000;-0.6455;1.8174
510;-2.1475;1.4274;0.0000;-0.6092;1.8255
511;-1.8374;1.4272;0.0000;-0.5879;1.8193
512;-1.5274;1.4268;0.0000;-0.6442;1.8310
513;-1.2175;1.4265;0.0000;-0.6694;1.8490
514;-0.9077;1.4265;0.0000;-0.6246;1.8400
515;-0.5976;1.4263;0.0000;-0.6080;1.8036
516;-0.2876;1.4262;0.0000;-0.6249;1.7697
517;0.0224;1.4262;0.0000;-0.6374;1.7131
518;0.3323;1.4262;0.0000;-0.6593;1.6246
519;0.6421;1.4261;0.0000;-0.6502;1.5889
520;0.9521;1.4259;0.0000;-0.6195;1.6208
521;1.2622;1.4259;0.0000;-0.6072;1.6559
522;1.5722;1.4259;0.0000;-0.6230;1.6787
523;1.8821;1.4257;0.0000;-0.6340;1.7149
524;2.1916;1.4254;0.0000;-0.6402;1.7639
525;2.4995;1.4247;0.0000;-0.6674;1.8066
526;2.8025;1.4231;0.0000;-0.6766;1.8228
527;3.0938;1.4215;0.0000;-0.6894;1.7878
528;3.3650;1.4237;0.0000;-0.7121;1.7300
529;3.6054;1.4730;0.0000;-0.7218;1.7087
530;-4.3772;1.1273;0.0000;-0.7001;1.7025
531;-4.1208;1.1512;0.0000;-0.6965;1.7240
532;-3.8338;1.1540;0.0000;-0.6787;1.7048
533;-3.5343;1.1538;0.0000;-0.6725;1.6666
534;-3.2291;1.1536;0.0000;-0.6711;1.6650
535;-2.9213;1.1533;0.0000;-0.6487;1.6933
536;-2.6121;1.1528;0.0000;-0.6508;1.7107
537;-2.3025;1.1524;0.0000;-0.6407;1.7357
538;-1.9927;1.1523;0.0000;-0.5990;1.7580
539;-1.6826;1.1520;0.0000;-0.6207;1.7300
540;-1.3727;1.1517;0.0000;-0.6558;1.6911
541;-1.0628;1.1516;0.0000;-0.6421;1.6756
542;-0.7528;1.1515;0.0000;-0.6008;1.6523
543;-0.4427;1.1514;0.0000;-0.5918;1.6308
544;-0.1326;1.1515;0.0000;-0.5844;1.6278
545;0.1776;1.1517;0.0000;-0.6076;1.5948
546;0.4875;1.1518;0.0000;-0.6481;1.5518
547;0.7974;1.1516;0.0000;-0.6438;1.5350
548;1.1074;1.1514;0.0000;-0.6148;1.5490
549;1.4174;1.1514;0.0000;-0.6327;1.5829
550;1.7273;1.1512;0.0000;-0.6555;1.5848
551;2.0370;1.1509;0.0000;-0.6328;1.5778
552;2.3462;1.1503;0.0000;-0.6507;1.5778
553;2.6530;1.1490;0.0000;-0.6780;1.5639
554;2.9545;1.1470;0.0000;-0.6793;1.5842
555;3.2474;1.1479;0.0000;-0.7111;1.6013
556;3.5372;1.1666;0.0000;-0.7211;1.5826
557;-4.2842;0.8671;0.0000;-0.6939;1.6883
558;-3.9860;0.8771;0.0000;-0.6888;1.6635
559;-3.6864;0.8787;0.0000;-0.6746;1.5945
560;-3.3825;0.8789;0.0000;-0.6804;1.5438
561;-3.0755;0.8788;0.0000;-0.6592;1.5544
562;-2.7668;0.8785;0.0000;-0.6535;1.5759
563;-2.4575;0.8780;0.0000;-0.6560;1.5947
564;-2.1477;0.8776;0.0000;-0.6157;1.6344
565;-1.8377;0.8774;0.0000;-0.6086;1.6415
566;-1.5278;0.8773;0.0000;-0.6346;1.5943
567;-1.2179;0.8772;0.0000;-0.6264;1.5297
568;-0.9078;0.8771;0.0000;-0.5946;1.4725
569;-0.5977;0.8772;0.0000;-0.5853;1.4402
570;-0.2876;0.8771;0.0000;-0.5851;1.4342
571;0.0225;0.8772;0.0000;-0.5886;1.4561
572;0.3326;0.8774;0.0000;-0.6266;1.4905
573;0.6425;0.8775;0.0000;-0.6412;1.4954
574;0.9525;0.8774;0.0000;-0.6285;1.4811
575;1.2625;0.8771;0.0000;-0.6249;1.4994
576;1.5724;0.8770;0.0000;-0.6630;1.5170
577;1.8821;0.8769;0.0000;-0.6565;1.4960
578;2.1918;0.8765;0.0000;-0.6306;1.4532
579;2.5003;0.8757;0.0000;-0.6501;1.4085
580;2.8051;0.8736;0.0000;-0.6610;1.4053
581;3.1001;0.8712;0.0000;-0.6775;1.4486
582;3.3744;0.8774;0.0000;-0.7411;1.4918
583;3.6108;0.8893;0.0000;-0.7230;1.5022
584;-4.4053;0.5955;0.0000;-0.7114;1.6096
585;-4.1260;0.6020;0.0000;-0.6971;1.5816
586;-3.8346;0.6037;0.0000;-0.6810;1.5617
587;-3.5345;0.6046;0.0000;-0.6853;1.5393
588;-3.2294;0.6048;0.0000;-0.6797;1.5234
589;-2.9215;0.6045;0.0000;-0.6383;1.5352
590;-2.6124;0.6039;0.0000;-0.6527;1.5473
591;-2.3028;0.6034;0.0000;-0.6414;1.5347
592;-1.9930;0.6030;0.0000;-0.5970;1.5150
593;-1.6829;0.6030;0.0000;-0.6102;1.5031
594;-1.3729;0.6029;0.0000;-0.6141;1.4734
595;-1.0628;0.6032;0.0000;-0.5808;1.4054
596;-0.7526;0.6033;0.0000;-0.5678;1.3605
597;-0.4425;0.6034;0.0000;-0.5761;1.3374
598;-0.1324;0.6034;0.0000;-0.5963;1.3386
599;0.1777;0.6034;0.0000;-0.6340;1.3952
600;0.4875;0.6034;0.0000;-0.6449;1.4482
601;0.7975;0.6033;0.0000;-0.6371;1.4684
602;1.1075;0.6031;0.0000;-0.6170;1.4674
603;1.4175;0.6028;0.0000;-0.6200;1.4650
604;1.7274;0.6028;0.0000;-0.6478;1.4538
605;2.0373;0.6026;0.0000;-0.6494;1.4203
606;2.3468;0.6022;0.0000;-0.6360;1.3863
607;2.6552;0.6006;0.0000;-0.6449;1.3704
608;2.9607;0.5968;0.0000;-0.6639;1.3961
609;3.2596;0.5939;0.0000;-0.7049;1.4488
610;3.5466;0.6028;0.0000;-0.7538;1.4815
611;-4.2850;0.3330;0.0000;-0.7344;1.5875
612;-3.9866;0.3292;0.0000;-0.7043;1.6047
613;-3.6869;0.3297;0.0000;-0.6834;1.6236
614;-3.3829;0.3302;0.0000;-0.6738;1.6303
615;-3.0759;0.3302;0.0000;-0.6480;1.5965
616;-2.7672;0.3298;0.0000;-0.6353;1.5364
617;-2.4578;0.3294;0.0000;-0.6401;1.4687
618;-2.1480;0.3291;0.0000;-0.5974;1.4034
619;-1.8379;0.3290;0.0000;-0.5844;1.3838
620;-1.5279;0.3288;0.0000;-0.6103;1.3955
621;-1.2179;0.3291;0.0000;-0.5855;1.4042
622;-0.9077;0.3295;0.0000;-0.5635;1.4046
623;-0.5975;0.3296;0.0000;-0.5728;1.3910
624;-0.2873;0.3296;0.0000;-0.5817;1.4021
625;0.0228;0.3295;0.0000;-0.6237;1.4438
626;0.3326;0.3294;0.0000;-0.6550;1.4641
627;0.6425;0.3293;0.0000;-0.6521;1.4672
628;0.9524;0.3291;0.0000;-0.6201;1.4856
629;1.2625;0.3289;0.0000;-0.5845;1.4754
630;1.5727;0.3288;0.0000;-0.6094;1.4437
631;1.8827;0.3288;0.0000;-0.6610;1.4281
632;2.1924;0.3287;0.0000;-0.6581;1.4104
633;2.5025;0.3280;0.0000;-0.6297;1.3850
634;2.8135;0.3258;0.0000;-0.6603;1.3782
635;3.1275;0.3227;0.0000;-0.6800;1.4007
636;3.4513;0.3307;0.0000;-0.7291;1.4196
637;-4.3800;0.0699;0.0000;-0.7487;1.6196
638;-4.1222;0.0542;0.0000;-0.7101;1.6257
639;-3.8347;0.0540;0.0000;-0.7000;1.6413
640;-3.5350;0.0550;0.0000;-0.6801;1.6354
641;-3.2297;0.0556;0.0000;-0.6676;1.5845
642;-2.9218;0.0556;0.0000;-0.6509;1.5035
643;-2.6127;0.0555;0.0000;-0.6276;1.4210
644;-2.3030;0.0554;0.0000;-0.5855;1.3573
645;-1.9929;0.0553;0.0000;-0.5571;1.3261
646;-1.6827;0.0551;0.0000;-0.5750;1.3189
647;-1.3726;0.0551;0.0000;-0.5789;1.3521
648;-1.0625;0.0553;0.0000;-0.5758;1.4122
649;-0.7524;0.0555;0.0000;-0.5997;1.4361
650;-0.4424;0.0556;0.0000;-0.6065;1.4435
651;-0.1323;0.0554;0.0000;-0.6055;1.4687
652;0.1778;0.0552;0.0000;-0.6099;1.5000
653;0.4878;0.0552;0.0000;-0.6370;1.5225
654;0.7976;0.0550;0.0000;-0.6479;1.5350
655;1.1076;0.0547;0.0000;-0.6242;1.5251
656;1.4176;0.0547;0.0000;-0.6155;1.5029
657;1.7276;0.0547;0.0000;-0.6213;1.4961
658;2.0377;0.0547;0.0000;-0.6517;1.5031
659;2.3477;0.0546;0.0000;-0.6489;1.5179
660;2.6585;0.0539;0.0000;-0.6500;1.5199
661;2.9706;0.0523;0.0000;-0.6659;1.4846
662;3.2839;0.0525;0.0000;-0.6667;1.4479
663;3.5839;0.0726;0.0000;-0.7178;1.4493
664;-4.3055;-0.2161;0.0000;-0.7130;1.5612
665;-3.9950;-0.2204;0.0000;-0.6935;1.5424
666;-3.6898;-0.2196;0.0000;-0.6956;1.5285
667;-3.3840;-0.2189;0.0000;-0.6972;1.5124
668;-3.0764;-0.2185;0.0000;-0.6824;1.4829
669;-2.7676;-0.2184;0.0000;-0.6411;1.4331
670;-2.4580;-0.2184;0.0000;-0.5951;1.3731
671;-2.1480;-0.2184;0.0000;-0.5594;1.3218
672;-1.8378;-0.2185;0.0000;-0.5442;1.2870
673;-1.5276;-0.2186;0.0000;-0.5516;1.2898
674;-1.2174;-0.2187;0.0000;-0.5602;1.3456
675;-0.9072;-0.2186;0.0000;-0.5882;1.4112
676;-0.5972;-0.2185;0.0000;-0.6227;1.4448
677;-0.2872;-0.2185;0.0000;-0.6344;1.4391
678;0.0227;-0.2188;0.0000;-0.6013;1.4284
679;0.3329;-0.2191;0.0000;-0.5915;1.4663
680;0.6430;-0.2193;0.0000;-0.6420;1.5417
681;0.9528;-0.2195;0.0000;-0.6556;1.5810
682;1.2626;-0.2196;0.0000;-0.6548;1.5839
683;1.5725;-0.2196;0.0000;-0.6238;1.5784
684;1.8827;-0.2195;0.0000;-0.6353;1.5768
685;2.1928;-0.2197;0.0000;-0.6684;1.6110
686;2.5034;-0.2199;0.0000;-0.6551;1.6603
687;2.8162;-0.2203;0.0000;-0.6477;1.6503
688;3.1341;-0.2203;0.0000;-0.6387;1.5793
689;3.4624;-0.2216;0.0000;-0.6632;1.5395
690;-4.3841;-0.4977;0.0000;-0.7078;1.4218
691;-4.1280;-0.4954;0.0000;-0.6801;1.4309
692;-3.8370;-0.4931;0.0000;-0.6524;1.4278
693;-3.5356;-0.4928;0.0000;-0.6816;1.4420
694;-3.2299;-0.4926;0.0000;-0.6997;1.4733
695;-2.9219;-0.4925;0.0000;-0.6734;1.4795
696;-2.6127;-0.4924;0.0000;-0.6447;1.4538
697;-2.3030;-0.4922;0.0000;-0.6027;1.4111
698;-1.9930;-0.4920;0.0000;-0.5490;1.3766
699;-1.6827;-0.4920;0.0000;-0.5298;1.3530
700;-1.3725;-0.4923;0.0000;-0.5413;1.3424
701;-1.0622;-0.4925;0.0000;-0.5567;1.3869
702;-0.7521;-0.4926;0.0000;-0.5963;1.4406
703;-0.4420;-0.4926;0.0000;-0.6248;1.4609
704;-0.1321;-0.4926;0.0000;-0.6381;1.4612
705;0.1779;-0.4928;0.0000;-0.6158;1.4745
706;0.4879;-0.4932;0.0000;-0.6322;1.5401
707;0.7978;-0.4938;0.0000;-0.6342;1.6055
708;1.1079;-0.4941;0.0000;-0.6311;1.6306
709;1.4178;-0.4942;0.0000;-0.6378;1.6361
710;1.7277;-0.4940;0.0000;-0.6587;1.6501
711;2.0375;-0.4941;0.0000;-0.6921;1.6783
712;2.3477;-0.4943;0.0000;-0.6592;1.7126
713;2.6589;-0.4944;0.0000;-0.6315;1.7310
714;2.9713;-0.4940;0.0000;-0.6461;1.6849
715;3.2830;-0.4942;0.0000;-0.6427;1.6284
716;3.5829;-0.5183;0.0000;-0.6597;1.5933
717;-4.3015;-0.7815;0.0000;-0.7102;1.3650
718;-3.9924;-0.7667;0.0000;-0.6374;1.4195
719;-3.6885;-0.7663;0.0000;-0.6218;1.4771
720;-3.3831;-0.7666;0.0000;-0.6588;1.5105
721;-3.0757;-0.7666;0.0000;-0.6649;1.5170
722;-2.7671;-0.7666;0.0000;-0.6766;1.5174
723;-2.4577;-0.7664;0.0000;-0.6620;1.5239
724;-2.1479;-0.7662;0.0000;-0.5942;1.5399
725;-1.8378;-0.7662;0.0000;-0.5462;1.5412
726;-1.5276;-0.7661;0.0000;-0.5446;1.5029
727;-1.2173;-0.7663;0.0000;-0.5458;1.4653
728;-0.9071;-0.7666;0.0000;-0.5581;1.4616
729;-0.5970;-0.7666;0.0000;-0.5859;1.4740
730;-0.2869;-0.7667;0.0000;-0.6197;1.5142
731;0.0231;-0.7669;0.0000;-0.6478;1.5653
732;0.3329;-0.7675;0.0000;-0.6631;1.5991
733;0.6428;-0.7681;0.0000;-0.6455;1.5997
734;0.9527;-0.7686;0.0000;-0.6116;1.5841
735;1.2628;-0.7687;0.0000;-0.6164;1.6036
736;1.5729;-0.7687;0.0000;-0.6361;1.6712
737;1.8828;-0.7688;0.0000;-0.6849;1.7258
738;2.1927;-0.7690;0.0000;-0.6788;1.7186
739;2.5034;-0.7691;0.0000;-0.6448;1.6999
740;2.8153;-0.7690;0.0000;-0.6452;1.6829
741;3.1298;-0.7692;0.0000;-0.6573;1.6566
742;3.4494;-0.7728;0.0000;-0.6472;1.6294
743;-4.3750;-1.0751;0.0000;-0.7318;1.4439
744;-4.1164;-1.0409;0.0000;-0.6542;1.4672
745;-3.8315;-1.0401;0.0000;-0.6022;1.5201
746;-3.5334;-1.0408;0.0000;-0.6066;1.5513
747;-3.2287;-1.0409;0.0000;-0.6270;1.5603
748;-2.9210;-1.0409;0.0000;-0.6540;1.5829
749;-2.6121;-1.0408;0.0000;-0.6871;1.6246
750;-2.3027;-1.0407;0.0000;-0.6481;1.6535
751;-1.9928;-1.0407;0.0000;-0.5872;1.6489
752;-1.6827;-1.0406;0.0000;-0.5675;1.6274
753;-1.3725;-1.0405;0.0000;-0.5666;1.6094
754;-1.0623;-1.0407;0.0000;-0.5257;1.5763
755;-0.7519;-1.0408;0.0000;-0.5492;1.5565
756;-0.4418;-1.0409;0.0000;-0.6069;1.5708
757;-0.1318;-1.0412;0.0000;-0.6367;1.5944
758;0.1781;-1.0417;0.0000;-0.6671;1.6152
759;0.4879;-1.0423;0.0000;-0.6532;1.5985
760;0.7979;-1.0427;0.0000;-0.6157;1.5572
761;1.1079;-1.0429;0.0000;-0.6302;1.5561
762;1.4178;-1.0432;0.0000;-0.6420;1.5953
763;1.7278;-1.0436;0.0000;-0.6402;1.6444
764;2.0378;-1.0437;0.0000;-0.6435;1.6611
765;2.3480;-1.0437;0.0000;-0.6310;1.6156
766;2.6586;-1.0438;0.0000;-0.6297;1.5711
767;2.9690;-1.0443;0.0000;-0.6622;1.5897
768;3.2755;-1.0485;0.0000;-0.6683;1.6163
769;3.5606;-1.0316;0.0000;-0.6876;1.6082
770;-4.2710;-1.3145;0.0000;-0.6951;1.5960
771;-3.9797;-1.3155;0.0000;-0.6097;1.5900
772;-3.6838;-1.3157;0.0000;-0.5744;1.5697
773;-3.3812;-1.3156;0.0000;-0.5961;1.5753
774;-3.0748;-1.3154;0.0000;-0.6317;1.6340
775;-2.7664;-1.3156;0.0000;-0.6565;1.6995
776;-2.4571;-1.3156;0.0000;-0.6591;1.7502
777;-2.1474;-1.3155;0.0000;-0.6149;1.7492
778;-1.8375;-1.3153;0.0000;-0.5893;1.7184
779;-1.5274;-1.3151;0.0000;-0.5884;1.7407
780;-1.2173;-1.3152;0.0000;-0.5598;1.7707
781;-0.9070;-1.3153;0.0000;-0.5469;1.7448
782;-0.5969;-1.3153;0.0000;-0.6133;1.7147
783;-0.2870;-1.3156;0.0000;-0.6423;1.6845
784;0.0231;-1.3159;0.0000;-0.6313;1.6616
785;0.3330;-1.3165;0.0000;-0.6428;1.6410
786;0.6430;-1.3169;0.0000;-0.6160;1.5956
787;0.9530;-1.3172;0.0000;-0.6229;1.5754
788;1.2629;-1.3175;0.0000;-0.6514;1.5740
789;1.5728;-1.3178;0.0000;-0.6354;1.5514
790;1.8828;-1.3181;0.0000;-0.6119;1.5315
791;2.1932;-1.3182;0.0000;-0.5970;1.5253
792;2.5042;-1.3180;0.0000;-0.5931;1.5088
793;2.8172;-1.3179;0.0000;-0.6329;1.5194
794;3.1358;-1.3188;0.0000;-0.6888;1.5762
795;3.4724;-1.3228;0.0000;-0.7390;1.6455
796;-4.3739;-1.5524;0.0000;-0.6976;1.6561
797;-4.1151;-1.5897;0.0000;-0.6134;1.6235
798;-3.8305;-1.5917;0.0000;-0.5839;1.6018
799;-3.5327;-1.5907;0.0000;-0.5798;1.5867
800;-3.2282;-1.5903;0.0000;-0.6083;1.6028
801;-2.9206;-1.5904;0.0000;-0.6277;1.6415
802;-2.6116;-1.5905;0.0000;-0.6451;1.6630
803;-2.3022;-1.5906;0.0000;-0.6235;1.6884
804;-1.9922;-1.5903;0.0000;-0.5937;1.7290
805;-1.6821;-1.5901;0.0000;-0.5792;1.7913
806;-1.3720;-1.5904;0.0000;-0.5932;1.8422
807;-1.0619;-1.5905;0.0000;-0.5826;1.8360
808;-0.7518;-1.5904;0.0000;-0.6033;1.8153
809;-0.4418;-1.5904;0.0000;-0.6541;1.8033
810;-0.1320;-1.5905;0.0000;-0.6691;1.7852
811;0.1779;-1.5910;0.0000;-0.6460;1.7323
812;0.4879;-1.5913;0.0000;-0.6156;1.6581
813;0.7979;-1.5914;0.0000;-0.5988;1.6137
814;1.1080;-1.5918;0.0000;-0.6061;1.5861
815;1.4180;-1.5920;0.0000;-0.6147;1.5489
816;1.7281;-1.5922;0.0000;-0.6067;1.5097
817;2.0382;-1.5923;0.0000;-0.5988;1.4946
818;2.3485;-1.5922;0.0000;-0.5867;1.5097
819;2.6591;-1.5919;0.0000;-0.6104;1.5299
820;2.9690;-1.5915;0.0000;-0.6631;1.5621
821;3.2748;-1.5917;0.0000;-0.7132;1.6299
822;3.5569;-1.6145;0.0000;-0.7903;1.6766
823;-4.3012;-1.8469;0.0000;-0.6456;1.6127
824;-3.9916;-1.8648;0.0000;-0.5619;1.5678
825;-3.6876;-1.8657;0.0000;-0.5670;1.5900
826;-3.3824;-1.8649;0.0000;-0.6126;1.6167
827;-3.0751;-1.8647;0.0000;-0.6123;1.5850
828;-2.7663;-1.8649;0.0000;-0.5999;1.5402
829;-2.4567;-1.8650;0.0000;-0.6089;1.5289
830;-2.1468;-1.8650;0.0000;-0.6088;1.5801
831;-1.8369;-1.8650;0.0000;-0.6062;1.6418
832;-1.5268;-1.8653;0.0000;-0.5988;1.6572
833;-1.2168;-1.8655;0.0000;-0.5998;1.6801
834;-0.9068;-1.8654;0.0000;-0.6177;1.7333
835;-0.5967;-1.8654;0.0000;-0.6233;1.7722
836;-0.2868;-1.8655;0.0000;-0.6722;1.7930
837;0.0229;-1.8658;0.0000;-0.6836;1.7611
838;0.3328;-1.8660;0.0000;-0.6355;1.6898
839;0.6428;-1.8660;0.0000;-0.5930;1.6538
840;0.9530;-1.8661;0.0000;-0.5731;1.6185
841;1.2632;-1.8663;0.0000;-0.5818;1.5634
842;1.5732;-1.8663;0.0000;-0.5948;1.5265
843;1.8834;-1.8665;0.0000;-0.6046;1.5071
844;2.1936;-1.8666;0.0000;-0.6097;1.5170
845;2.5041;-1.8665;0.0000;-0.6222;1.5602
846;2.8152;-1.8663;0.0000;-0.6415;1.6069
847;3.1282;-1.8664;0.0000;-0.6867;1.6430
848;3.4472;-1.8725;0.0000;-0.7663;1.6637
849;-4.3841;-2.1312;0.0000;-0.6702;1.6683
850;-4.1280;-2.1350;0.0000;-0.5750;1.6415
851;-3.8366;-2.1392;0.0000;-0.5456;1.6093
852;-3.5350;-2.1396;0.0000;-0.5869;1.6277
853;-3.2290;-2.1393;0.0000;-0.6129;1.6290
854;-2.9207;-2.1391;0.0000;-0.5764;1.5979
855;-2.6113;-2.1390;0.0000;-0.5881;1.5902
856;-2.3016;-2.1392;0.0000;-0.6047;1.6301
857;-1.9917;-2.1394;0.0000;-0.6201;1.6504
858;-1.6818;-2.1394;0.0000;-0.6181;1.5900
859;-1.3717;-2.1396;0.0000;-0.5933;1.5489
860;-1.0615;-2.1400;0.0000;-0.6174;1.6101
861;-0.7518;-2.1402;0.0000;-0.6565;1.6775
862;-0.4418;-2.1403;0.0000;-0.6408;1.7001
863;-0.1318;-2.1405;0.0000;-0.6617;1.6992
864;0.1780;-2.1406;0.0000;-0.6604;1.6727
865;0.4879;-2.1406;0.0000;-0.6176;1.6412
866;0.7980;-2.1406;0.0000;-0.5761;1.6205
867;1.1082;-2.1406;0.0000;-0.5538;1.5859
868;1.4184;-2.1406;0.0000;-0.5780;1.5519
869;1.7285;-2.1407;0.0000;-0.6174;1.5316
870;2.0385;-2.1407;0.0000;-0.6441;1.5145
871;2.3486;-2.1408;0.0000;-0.6295;1.5306
872;2.6590;-2.1410;0.0000;-0.6287;1.5901
873;2.9689;-2.1409;0.0000;-0.6549;1.6605
874;3.2767;-2.1397;0.0000;-0.7333;1.6810
875;3.5807;-2.1348;0.0000;-0.7560;1.6707
876;-4.3049;-2.4138;0.0000;-0.6491;1.6680
877;-3.9950;-2.4117;0.0000;-0.5442;1.6514
878;-3.6894;-2.4133;0.0000;-0.5430;1.6247
879;-3.3830;-2.4136;0.0000;-0.6019;1.6027
880;-3.0752;-2.4136;0.0000;-0.5998;1.6133
881;-2.7661;-2.4137;0.0000;-0.5839;1.6640
882;-2.4565;-2.4139;0.0000;-0.6012;1.7085
883;-2.1466;-2.4143;0.0000;-0.5975;1.7227
884;-1.8366;-2.4142;0.0000;-0.6158;1.7132
885;-1.5267;-2.4139;0.0000;-0.6248;1.6732
886;-1.2166;-2.4142;0.0000;-0.5993;1.6372
887;-0.9066;-2.4147;0.0000;-0.6334;1.6385
888;-0.5967;-2.4149;0.0000;-0.6618;1.6555
889;-0.2869;-2.4151;0.0000;-0.6594;1.6617
890;0.0230;-2.4152;0.0000;-0.6568;1.6569
891;0.3330;-2.4152;0.0000;-0.6262;1.6282
892;0.6430;-2.4151;0.0000;-0.5904;1.5827
893;0.9531;-2.4151;0.0000;-0.5660;1.5332
894;1.2634;-2.4150;0.0000;-0.5667;1.4995
895;1.5736;-2.4149;0.0000;-0.6053;1.5087
896;1.8835;-2.4150;0.0000;-0.6533;1.5366
897;2.1935;-2.4150;0.0000;-0.6569;1.5337
898;2.5038;-2.4153;0.0000;-0.6245;1.5154
899;2.8148;-2.4156;0.0000;-0.6220;1.5344
900;3.1271;-2.4146;0.0000;-0.6922;1.5734
901;3.4452;-2.4030;0.0000;-0.7323;1.6011
902;-4.3788;-2.6992;0.0000;-0.6310;1.4791
903;-4.1215;-2.6862;0.0000;-0.5622;1.5170
904;-3.8343;-2.6869;0.0000;-0.5586;1.5558
905;-3.5343;-2.6877;0.0000;-0.5875;1.5574
906;-3.2288;-2.6879;0.0000;-0.6023;1.5497
907;-2.9206;-2.6881;0.0000;-0.5993;1.5520
908;-2.6114;-2.6885;0.0000;-0.6124;1.5567
909;-2.3017;-2.6888;0.0000;-0.6045;1.5716
910;-1.9917;-2.6890;0.0000;-0.5814;1.5979
911;-1.6816;-2.6889;0.0000;-0.6136;1.6307
912;-1.3716;-2.6888;0.0000;-0.6296;1.6503
913;-1.0616;-2.6891;0.0000;-0.6002;1.6333
914;-0.7515;-2.6894;0.0000;-0.6207;1.6189
915;-0.4416;-2.6896;0.0000;-0.6671;1.6314
916;-0.1318;-2.6898;0.0000;-0.6590;1.6252
917;0.1781;-2.6898;0.0000;-0.6205;1.5878
918;0.4882;-2.6895;0.0000;-0.5856;1.5627
919;0.7984;-2.6894;0.0000;-0.5870;1.5368
920;1.1084;-2.6891;0.0000;-0.6071;1.5073
921;1.4184;-2.6890;0.0000;-0.6256;1.5021
922;1.7284;-2.6892;0.0000;-0.6383;1.5099
923;2.0384;-2.6894;0.0000;-0.6480;1.5185
924;2.3484;-2.6894;0.0000;-0.6364;1.5018
925;2.6586;-2.6898;0.0000;-0.6126;1.4613
926;2.9679;-2.6905;0.0000;-0.6343;1.4303
927;3.2712;-2.6869;0.0000;-0.7114;1.4373
928;3.5517;-2.6568;0.0000;-0.6986;1.4648
929;-4.2844;-2.9631;0.0000;-0.5907;1.3665
930;-3.9861;-2.9616;0.0000;-0.5684;1.4076
931;-3.6863;-2.9620;0.0000;-0.5900;1.4540
932;-3.3821;-2.9621;0.0000;-0.5819;1.4704
933;-3.0748;-2.9622;0.0000;-0.5889;1.4749
934;-2.7660;-2.9623;0.0000;-0.6230;1.4514
935;-2.4566;-2.9626;0.0000;-0.6308;1.4123
936;-2.1468;-2.9631;0.0000;-0.5987;1.3963
937;-1.8367;-2.9632;0.0000;-0.5874;1.4323
938;-1.5267;-2.9631;0.0000;-0.6229;1.5112
939;-1.2168;-2.9634;0.0000;-0.6189;1.5675
940;-0.9066;-2.9637;0.0000;-0.5832;1.5771
941;-0.5965;-2.9639;0.0000;-0.6200;1.5719
942;-0.2866;-2.9642;0.0000;-0.6463;1.5564
943;0.0234;-2.9642;0.0000;-0.6178;1.5321
944;0.3334;-2.9639;0.0000;-0.5990;1.5223
945;0.6435;-2.9638;0.0000;-0.6098;1.5308
946;0.9535;-2.9636;0.0000;-0.6133;1.5479
947;1.2635;-2.9634;0.0000;-0.6241;1.5463
948;1.5734;-2.9634;0.0000;-0.6576;1.5230
949;1.8833;-2.9635;0.0000;-0.6534;1.4965
950;2.1935;-2.9636;0.0000;-0.6402;1.4738
951;2.5043;-2.9637;0.0000;-0.6307;1.4578
952;2.8172;-2.9642;0.0000;-0.6157;1.4324
953;3.1355;-2.9638;0.0000;-0.6510;1.4036
954;3.4674;-2.9511;0.0000;-0.6673;1.3849
955;-4.4033;-3.2251;0.0000;-0.6045;1.4420
956;-4.1253;-3.2332;0.0000;-0.5820;1.4759
957;-3.8342;-3.2358;0.0000;-0.5896;1.5099
958;-3.5340;-3.2362;0.0000;-0.5884;1.5185
959;-3.2285;-3.2362;0.0000;-0.5480;1.5052
960;-2.9204;-3.2364;0.0000;-0.5903;1.4951
961;-2.6113;-3.2365;0.0000;-0.6375;1.4647
962;-2.3017;-3.2366;0.0000;-0.6359;1.3920
963;-1.9918;-3.2369;0.0000;-0.5963;1.3620
964;-1.6817;-3.2371;0.0000;-0.5926;1.4278
965;-1.3716;-3.2375;0.0000;-0.6252;1.4934
966;-1.0617;-3.2379;0.0000;-0.6069;1.5195
967;-0.7516;-3.2382;0.0000;-0.5990;1.5309
968;-0.4416;-3.2384;0.0000;-0.6348;1.5035
969;-0.1317;-3.2384;0.0000;-0.6085;1.4739
970;0.1785;-3.2383;0.0000;-0.5869;1.4986
971;0.4886;-3.2380;0.0000;-0.6261;1.5207
972;0.7984;-3.2380;0.0000;-0.6470;1.5202
973;1.1084;-3.2378;0.0000;-0.5876;1.5329
974;1.4187;-3.2376;0.0000;-0.6044;1.5294
975;1.7286;-3.2376;0.0000;-0.6692;1.4886
976;2.0384;-3.2377;0.0000;-0.6765;1.4380
977;2.3486;-3.2375;0.0000;-0.6497;1.4127
978;2.6596;-3.2376;0.0000;-0.6130;1.4032
979;2.9715;-3.2376;0.0000;-0.6169;1.3835
980;3.2808;-3.2375;0.0000;-0.6431;1.3655
981;3.5601;-3.2378;0.0000;-0.6413;1.3553
982;-4.2829;-3.4973;0.0000;-0.6184;1.6034
983;-3.9853;-3.5088;0.0000;-0.6006;1.6241
984;-3.6859;-3.5108;0.0000;-0.6028;1.6144
985;-3.3821;-3.5107;0.0000;-0.5509;1.5948
986;-3.0748;-3.5106;0.0000;-0.5377;1.5743
987;-2.7659;-3.5107;0.0000;-0.5855;1.5580
988;-2.4564;-3.5107;0.0000;-0.6381;1.5283
989;-2.1468;-3.5107;0.0000;-0.6419;1.4795
990;-1.8368;-3.5109;0.0000;-0.6046;1.4489
991;-1.5268;-3.5114;0.0000;-0.6024;1.4419
992;-1.2168;-3.5119;0.0000;-0.6041;1.4489
993;-0.9067;-3.5123;0.0000;-0.5992;1.4660
994;-0.5966;-3.5125;0.0000;-0.6273;1.4758
995;-0.2867;-3.5125;0.0000;-0.6182;1.4667
996;0.0234;-3.5125;0.0000;-0.5755;1.4651
997;0.3336;-3.5125;0.0000;-0.5939;1.5029
998;0.6436;-3.5123;0.0000;-0.6453;1.5386
999;0.9534;-3.5121;0.0000;-0.6443;1.5545
1000;1.2635;-3.5120;0.0000;-0.5988;1.5544
1001;1.5735;-3.5118;0.0000;-0.6242;1.5119
1002;1.8835;-3.5116;0.0000;-0.6767;1.4489
1003;2.1935;-3.5115;0.0000;-0.6675;1.4073
1004;2.5043;-3.5113;0.0000;-0.6148;1.3890
1005;2.8173;-3.5109;0.0000;-0.6166;1.3715
1006;3.1354;-3.5113;0.0000;-0.6343;1.3563
1007;3.4667;-3.5246;0.0000;-0.6277;1.3513
1008;-4.3753;-3.7557;0.0000;-0.6372;1.6660
1009;-4.1193;-3.7811;0.0000;-0.6169;1.6337
1010;-3.8330;-3.7857;0.0000;-0.5962;1.5598
1011;-3.5339;-3.7857;0.0000;-0.5707;1.5355
1012;-3.2287;-3.7853;0.0000;-0.5520;1.5510
1013;-2.9207;-3.7852;0.0000;-0.5635;1.5460
1014;-2.6113;-3.7852;0.0000;-0.5786;1.5382
1015;-2.3015;-3.7851;0.0000;-0.6311;1.5467
1016;-1.9918;-3.7850;0.0000;-0.6456;1.5335
1017;-1.6819;-3.7852;0.0000;-0.5994;1.4651
1018;-1.3718;-3.7856;0.0000;-0.5802;1.4119
1019;-1.0616;-3.7861;0.0000;-0.5996;1.4100
1020;-0.7517;-3.7865;0.0000;-0.6190;1.4151
1021;-0.4417;-3.7866;0.0000;-0.6172;1.4313
1022;-0.1316;-3.7866;0.0000;-0.5830;1.4523
1023;0.1786;-3.7866;0.0000;-0.5842;1.4623
1024;0.4887;-3.7866;0.0000;-0.6026;1.5099
1025;0.7987;-3.7866;0.0000;-0.6474;1.5690
1026;1.1085;-3.7865;0.0000;-0.6536;1.5666
1027;1.4184;-3.7862;0.0000;-0.6153;1.5266
1028;1.7285;-3.7859;0.0000;-0.6478;1.4934
1029;2.0384;-3.7856;0.0000;-0.6830;1.4738
1030;2.3484;-3.7852;0.0000;-0.6041;1.4547
1031;2.6589;-3.7849;0.0000;-0.5857;1.4396
1032;2.9677;-3.7847;0.0000;-0.6532;1.4180
1033;3.2701;-3.7892;0.0000;-0.6440;1.3701
1034;3.5470;-3.8200;0.0000;-0.6292;1.3489
1035;-4.3008;-4.0466;0.0000;-0.6311;1.5782
1036;-3.9928;-4.0592;0.0000;-0.5959;1.5271
1037;-3.6886;-4.0601;0.0000;-0.5808;1.4991
1038;-3.3829;-4.0598;0.0000;-0.5682;1.4958
1039;-3.0752;-4.0596;0.0000;-0.5900;1.4909
1040;-2.7663;-4.0595;0.0000;-0.5937;1.4862
1041;-2.4567;-4.0594;0.0000;-0.6028;1.5182
1042;-2.1469;-4.0595;0.0000;-0.6318;1.5519
1043;-1.8370;-4.0595;0.0000;-0.6243;1.5346
1044;-1.5270;-4.0595;0.0000;-0.5879;1.4934
1045;-1.2168;-4.0599;0.0000;-0.5891;1.4381
1046;-0.9067;-4.0603;0.0000;-0.5961;1.3801
1047;-0.5966;-4.0605;0.0000;-0.5877;1.3585
1048;-0.2866;-4.0607;0.0000;-0.5927;1.3849
1049;0.0235;-4.0607;0.0000;-0.6090;1.4305
1050;0.3335;-4.0607;0.0000;-0.6022;1.4779
1051;0.6436;-4.0610;0.0000;-0.5906;1.5005
1052;0.9537;-4.0610;0.0000;-0.6209;1.4924
1053;1.2636;-4.0607;0.0000;-0.6367;1.5119
1054;1.5736;-4.0603;0.0000;-0.6462;1.5240
1055;1.8835;-4.0599;0.0000;-0.6912;1.5004
1056;2.1934;-4.0597;0.0000;-0.6402;1.4889
1057;2.5038;-4.0594;0.0000;-0.5720;1.4955
1058;2.8145;-4.0595;0.0000;-0.6244;1.4835
1059;3.1257;-4.0616;0.0000;-0.6531;1.4427
1060;3.4426;-4.0741;0.0000;-0.6372;1.3956
1061;-4.3865;-4.3248;0.0000;-0.6240;1.4284
1062;-4.1282;-4.3328;0.0000;-0.6160;1.4434
1063;-3.8369;-4.3344;0.0000;-0.5936;1.4695
1064;-3.5353;-4.3345;0.0000;-0.5702;1.4935
1065;-3.2291;-4.3343;0.0000;-0.5841;1.4868
1066;-2.9208;-4.3341;0.0000;-0.6035;1.4770
1067;-2.6116;-4.3341;0.0000;-0.6171;1.4911
1068;-2.3019;-4.3342;0.0000;-0.6144;1.5045
1069;-1.9920;-4.3342;0.0000;-0.6157;1.5093
1070;-1.6820;-4.3341;0.0000;-0.6250;1.5249
1071;-1.3720;-4.3342;0.0000;-0.6136;1.5099
1072;-1.0620;-4.3343;0.0000;-0.5981;1.4487
1073;-0.7519;-4.3344;0.0000;-0.5543;1.3859
1074;-0.4416;-4.3346;0.0000;-0.5619;1.3594
1075;-0.1314;-4.3347;0.0000;-0.6028;1.3912
1076;0.1785;-4.3349;0.0000;-0.6142;1.4484
1077;0.4886;-4.3352;0.0000;-0.5757;1.4547
1078;0.7988;-4.3351;0.0000;-0.5723;1.4380
1079;1.1089;-4.3349;0.0000;-0.6114;1.4624
1080;1.4189;-4.3348;0.0000;-0.6512;1.5088
1081;1.7287;-4.3344;0.0000;-0.6852;1.5363
1082;2.0385;-4.3339;0.0000;-0.6611;1.5281
1083;2.3486;-4.3336;0.0000;-0.6031;1.5341
1084;2.6586;-4.3337;0.0000;-0.6209;1.5477
1085;2.9675;-4.3343;0.0000;-0.6489;1.5263
1086;3.2740;-4.3367;0.0000;-0.6474;1.4949
1087;3.5764;-4.3418;0.0000;-0.6219;1.4330
1088;-4.3028;-4.6145;0.0000;-0.5947;1.3884
1089;-3.9935;-4.6092;0.0000;-0.6247;1.4088
1090;-3.6889;-4.6097;0.0000;-0.5912;1.4189
1091;-3.3830;-4.6099;0.0000;-0.5916;1.4585
1092;-3.0752;-4.6096;0.0000;-0.5989;1.4869
1093;-2.7662;-4.6095;0.0000;-0.5962;1.4748
1094;-2.4565;-4.6095;0.0000;-0.6054;1.4559
1095;-2.1467;-4.6094;0.0000;-0.6001;1.4599
1096;-1.8367;-4.6094;0.0000;-0.6267;1.4944
1097;-1.5269;-4.6093;0.0000;-0.6261;1.5193
1098;-1.2168;-4.6093;0.0000;-0.5988;1.5028
1099;-0.9067;-4.6092;0.0000;-0.5728;1.4773
1100;-0.5964;-4.6090;0.0000;-0.5677;1.4591
1101;-0.2863;-4.6091;0.0000;-0.5844;1.4436
1102;0.0237;-4.6093;0.0000;-0.6010;1.4433
1103;0.3339;-4.6095;0.0000;-0.5630;1.4431
1104;0.6441;-4.6095;0.0000;-0.5478;1.4441
1105;0.9543;-4.6094;0.0000;-0.5721;1.4482
1106;1.2644;-4.6091;0.0000;-0.6250;1.4612
1107;1.5743;-4.6089;0.0000;-0.6736;1.5157
1108;1.8841;-4.6085;0.0000;-0.6656;1.5928
1109;2.1941;-4.6080;0.0000;-0.6261;1.6645
1110;2.5044;-4.6079;0.0000;-0.6288;1.6740
1111;2.8146;-4.6080;0.0000;-0.6348;1.6017
1112;3.1256;-4.6079;0.0000;-0.6551;1.5263
1113;3.4428;-4.6025;0.0000;-0.6399;1.4882
1114;-4.3744;-4.9061;0.0000;-0.5652;1.3585
1115;-4.1172;-4.8876;0.0000;-0.6025;1.3813
1116;-3.8313;-4.8872;0.0000;-0.6059;1.3894
1117;-3.5319;-4.8871;0.0000;-0.5808;1.3807
1118;-3.2267;-4.8871;0.0000;-0.6020;1.4053
1119;-2.9186;-4.8867;0.0000;-0.6031;1.4392
1120;-2.6094;-4.8863;0.0000;-0.6042;1.4473
1121;-2.2997;-4.8861;0.0000;-0.5898;1.4630
1122;-1.9895;-4.8858;0.0000;-0.5763;1.4839
1123;-1.6795;-4.8857;0.0000;-0.6022;1.4949
1124;-1.3694;-4.8855;0.0000;-0.6087;1.5073
1125;-1.0594;-4.8852;0.0000;-0.6090;1.5209
1126;-0.7493;-4.8848;0.0000;-0.5933;1.5427
1127;-0.4392;-4.8846;0.0000;-0.5853;1.5418
1128;-0.1291;-4.8844;0.0000;-0.5880;1.4940
1129;0.1810;-4.8843;0.0000;-0.5670;1.4503
1130;0.4913;-4.8843;0.0000;-0.5309;1.4469
1131;0.8017;-4.8839;0.0000;-0.5431;1.4612
1132;1.1119;-4.8834;0.0000;-0.5781;1.4895
1133;1.4220;-4.8832;0.0000;-0.6321;1.5221
1134;1.7318;-4.8829;0.0000;-0.6542;1.5591
1135;2.0418;-4.8825;0.0000;-0.6405;1.6124
1136;2.3517;-4.8824;0.0000;-0.6537;1.6480
1137;2.6611;-4.8820;0.0000;-0.6355;1.6268
1138;2.9692;-4.8813;0.0000;-0.6199;1.5591
1139;3.2717;-4.8791;0.0000;-0.6543;1.5091
1140;3.5512;-4.8543;0.0000;-0.6443;1.5094
1141;-4.2740;-5.1705;0.0000;-0.5639;1.3785
1142;-3.9759;-5.1694;0.0000;-0.5873;1.3766
1143;-3.6758;-5.1675;0.0000;-0.5723;1.3788
1144;-3.3712;-5.1664;0.0000;-0.5689;1.3419
1145;-3.0638;-5.1657;0.0000;-0.6085;1.3283
1146;-2.7549;-5.1650;0.0000;-0.6116;1.3828
1147;-2.4452;-5.1644;0.0000;-0.5887;1.4184
1148;-2.1352;-5.1640;0.0000;-0.5651;1.4286
1149;-1.8250;-5.1634;0.0000;-0.5583;1.4332
1150;-1.5147;-5.1629;0.0000;-0.5890;1.4463
1151;-1.2046;-5.1624;0.0000;-0.6202;1.4940
1152;-0.8946;-5.1618;0.0000;-0.6257;1.5373
1153;-0.5845;-5.1612;0.0000;-0.5955;1.5454
1154;-0.2743;-5.1605;0.0000;-0.5770;1.5244
1155;0.0359;-5.1599;0.0000;-0.5730;1.4842
1156;0.3461;-5.1594;0.0000;-0.5550;1.4398
1157;0.6565;-5.1588;0.0000;-0.5545;1.4355
1158;0.9667;-5.1582;0.0000;-0.5615;1.4817
1159;1.2770;-5.1577;0.0000;-0.5653;1.5055
1160;1.5872;-5.1570;0.0000;-0.5941;1.4996
1161;1.8974;-5.1563;0.0000;-0.6105;1.5063
1162;2.2076;-5.1556;0.0000;-0.6229;1.4881
1163;2.5179;-5.1550;0.0000;-0.6657;1.4706
1164;2.8288;-5.1537;0.0000;-0.6486;1.5169
1165;3.1433;-5.1501;0.0000;-0.6365;1.5439
1166;3.4713;-5.1393;0.0000;-0.6658;1.5147
1167;-4.3763;-5.4298;0.0000;-0.5892;1.3902
1168;-4.0981;-5.4510;0.0000;-0.5613;1.3863
1169;-3.8028;-5.4491;0.0000;-0.5636;1.3888
1170;-3.4997;-5.4473;0.0000;-0.5413;1.3837
1171;-3.1927;-5.4457;0.0000;-0.5917;1.3608
1172;-2.8840;-5.4446;0.0000;-0.6504;1.3846
1173;-2.5746;-5.4437;0.0000;-0.5993;1.4144
1174;-2.2644;-5.4426;0.0000;-0.5499;1.3866
1175;-1.9540;-5.4416;0.0000;-0.5426;1.3715
1176;-1.6436;-5.4406;0.0000;-0.5753;1.3795
1177;-1.3334;-5.4398;0.0000;-0.5959;1.4044
1178;-1.0231;-5.4389;0.0000;-0.6043;1.4453
1179;-0.7129;-5.4378;0.0000;-0.6069;1.4686
1180;-0.4026;-5.4366;0.0000;-0.5819;1.4778
1181;-0.0922;-5.4354;0.0000;-0.5589;1.4924
1182;0.2182;-5.4343;0.0000;-0.5755;1.4804
1183;0.5285;-5.4331;0.0000;-0.5961;1.4356
1184;0.8387;-5.4321;0.0000;-0.5789;1.4246
1185;1.1491;-5.4311;0.0000;-0.5289;1.4370
1186;1.4596;-5.4299;0.0000;-0.5280;1.4309
1187;1.7701;-5.4288;0.0000;-0.5784;1.4367
1188;2.0804;-5.4276;0.0000;-0.5944;1.4581
1189;2.3906;-5.4263;0.0000;-0.6199;1.4346
1190;2.6999;-5.4249;0.0000;-0.6707;1.4316
1191;3.0062;-5.4228;0.0000;-0.6577;1.4959
1192;3.3017;-5.4172;0.0000;-0.6473;1.5173
1193;3.5597;-5.4131;0.0000;-0.6893;1.4895
