# Units: length:mm angle:deg time:s strain:% 
# Stage: image-000013
stage;index;relative_time;date
"image-000013";14;13.0000;"2022-09-26T12:01:03.387"
# Name : Surface_xy
id;x;y;z;epsilon_x;epsilon_y
0;-4.5262;5.6802;0.0000;-0.1939;0.6634
1;-4.2145;5.6802;0.0000;-0.1826;0.6692
2;-3.9028;5.6804;0.0000;-0.1785;0.7442
3;-3.5910;5.6804;0.0000;-0.1531;0.7436
4;-3.2791;5.6805;0.0000;-0.1760;0.7189
5;-2.9674;5.6806;0.0000;-0.2062;0.7090
6;-2.6558;5.6806;0.0000;-0.1855;0.6681
7;-2.3440;5.6807;0.0000;-0.1623;0.6883
8;-2.0322;5.6809;0.0000;-0.1624;0.6828
9;-1.7203;5.6809;0.0000;-0.1512;0.6731
10;-1.4085;5.6809;0.0000;-0.1668;0.7009
11;-1.0967;5.6809;0.0000;-0.1870;0.7295
12;-0.7850;5.6809;0.0000;-0.1896;0.7258
13;-0.4732;5.6809;0.0000;-0.1519;0.7215
14;-0.1613;5.6809;0.0000;-0.1673;0.7167
15;0.1505;5.6809;0.0000;-0.2055;0.6966
16;0.4621;5.6809;0.0000;-0.1947;0.7250
17;0.7739;5.6809;0.0000;-0.1980;0.7408
18;1.0856;5.6808;0.0000;-0.2259;0.7071
19;1.3970;5.6808;0.0000;-0.2512;0.7186
20;1.7086;5.6808;0.0000;-0.2241;0.6796
21;2.0203;5.6808;0.0000;-0.2387;0.6656
22;2.3317;5.6810;0.0000;-0.2256;0.7079
23;2.6435;5.6810;0.0000;-0.2000;0.6472
24;2.9551;5.6809;0.0000;-0.2322;0.6103
25;3.2667;5.6811;0.0000;-0.2236;0.6739
26;3.5783;5.6812;0.0000;-0.2219;0.6914
27;3.8268;5.5714;0.0000;-0.2171;0.6877
28;3.8256;5.2570;0.0000;-0.2261;0.6693
29;3.8244;4.9426;0.0000;-0.2168;0.6536
30;3.8232;4.6282;0.0000;-0.2525;0.7051
31;3.8221;4.3136;0.0000;-0.2768;0.7425
32;3.8210;3.9989;0.0000;-0.2801;0.7176
33;3.8199;3.6844;0.0000;-0.2533;0.7065
34;3.8189;3.3699;0.0000;-0.2332;0.7105
35;3.8178;3.0553;0.0000;-0.2217;0.7133
36;3.8167;2.7409;0.0000;-0.2313;0.6744
37;3.8157;2.4266;0.0000;-0.2588;0.6429
38;3.8148;2.1122;0.0000;-0.2604;0.6898
39;3.8139;1.7976;0.0000;-0.2550;0.7467
40;3.8129;1.4830;0.0000;-0.2617;0.7067
41;3.8121;1.1685;0.0000;-0.2232;0.6639
42;3.8112;0.8542;0.0000;-0.2367;0.6308
43;3.8104;0.5400;0.0000;-0.2463;0.5914
44;3.8097;0.2258;0.0000;-0.2182;0.6328
45;3.8088;-0.0886;0.0000;-0.2237;0.7077
46;3.8078;-0.4031;0.0000;-0.2741;0.7068
47;3.8071;-0.7177;0.0000;-0.2271;0.7048
48;3.8063;-1.0322;0.0000;-0.2316;0.7405
49;3.8055;-1.3469;0.0000;-0.2364;0.7851
50;3.8046;-1.6617;0.0000;-0.2706;0.7524
51;3.8037;-1.9764;0.0000;-0.2169;0.7300
52;3.8030;-2.2909;0.0000;-0.1954;0.6950
53;3.8022;-2.6053;0.0000;-0.1966;0.6371
54;3.8013;-2.9195;0.0000;-0.2047;0.6169
55;3.8005;-3.2338;0.0000;-0.1946;0.6324
56;3.7996;-3.5480;0.0000;-0.1879;0.6384
57;3.7988;-3.8624;0.0000;-0.1807;0.6359
58;3.7980;-4.1767;0.0000;-0.1716;0.6451
59;3.7971;-4.4910;0.0000;-0.1843;0.6804
60;3.7962;-4.8055;0.0000;-0.2477;0.6946
61;3.7954;-5.1200;0.0000;-0.2597;0.6976
62;3.7946;-5.4345;0.0000;-0.2703;0.7175
63;3.5298;-5.5074;0.0000;-0.2137;0.7410
64;3.2180;-5.5092;0.0000;-0.1753;0.6942
65;2.9063;-5.5110;0.0000;-0.2100;0.6478
66;2.5947;-5.5127;0.0000;-0.2083;0.6503
67;2.2829;-5.5144;0.0000;-0.1756;0.6396
68;1.9712;-5.5162;0.0000;-0.1750;0.6468
69;1.6594;-5.5180;0.0000;-0.1611;0.6808
70;1.3475;-5.5198;0.0000;-0.1406;0.6949
71;1.0356;-5.5215;0.0000;-0.1630;0.6757
72;0.7239;-5.5232;0.0000;-0.2000;0.6699
73;0.4122;-5.5249;0.0000;-0.1713;0.6958
74;0.1004;-5.5266;0.0000;-0.1730;0.6992
75;-0.2113;-5.5283;0.0000;-0.1933;0.6829
76;-0.5230;-5.5300;0.0000;-0.1943;0.6716
77;-0.8347;-5.5317;0.0000;-0.2061;0.6633
78;-1.1464;-5.5333;0.0000;-0.1977;0.6187
79;-1.4581;-5.5349;0.0000;-0.2021;0.5849
80;-1.7697;-5.5367;0.0000;-0.1844;0.6230
81;-2.0816;-5.5384;0.0000;-0.1579;0.6393
82;-2.3934;-5.5402;0.0000;-0.1749;0.6611
83;-2.7051;-5.5421;0.0000;-0.2180;0.7253
84;-3.0167;-5.5438;0.0000;-0.2025;0.7090
85;-3.3284;-5.5455;0.0000;-0.1652;0.6676
86;-3.6403;-5.5472;0.0000;-0.1564;0.6636
87;-3.9520;-5.5488;0.0000;-0.1851;0.6675
88;-4.2637;-5.5505;0.0000;-0.1958;0.6849
89;-4.5743;-5.5284;0.0000;-0.1958;0.6857
90;-4.6244;-5.2593;0.0000;-0.2038;0.6512
91;-4.6245;-4.9450;0.0000;-0.2108;0.6364
92;-4.6247;-4.6307;0.0000;-0.1805;0.6363
93;-4.6249;-4.3164;0.0000;-0.1879;0.6324
94;-4.6251;-4.0022;0.0000;-0.1858;0.6826
95;-4.6255;-3.6875;0.0000;-0.1805;0.7473
96;-4.6257;-3.3729;0.0000;-0.1929;0.6969
97;-4.6259;-3.0585;0.0000;-0.1931;0.6580
98;-4.6261;-2.7442;0.0000;-0.1859;0.6519
99;-4.6264;-2.4299;0.0000;-0.2322;0.7016
100;-4.6266;-2.1152;0.0000;-0.2471;0.7421
101;-4.6268;-1.8006;0.0000;-0.2193;0.7394
102;-4.6270;-1.4860;0.0000;-0.2328;0.7363
103;-4.6271;-1.1713;0.0000;-0.2697;0.6809
104;-4.6274;-0.8570;0.0000;-0.2583;0.5830
105;-4.6277;-0.5430;0.0000;-0.2368;0.5547
106;-4.6280;-0.2289;0.0000;-0.1767;0.6546
107;-4.6282;0.0857;0.0000;-0.2213;0.7248
108;-4.6283;0.4003;0.0000;-0.2720;0.7303
109;-4.6286;0.7150;0.0000;-0.2535;0.7736
110;-4.6288;1.0298;0.0000;-0.2428;0.8031
111;-4.6290;1.3446;0.0000;-0.2476;0.7973
112;-4.6293;1.6593;0.0000;-0.2352;0.8086
113;-4.6295;1.9743;0.0000;-0.2671;0.8293
114;-4.6297;2.2891;0.0000;-0.2633;0.7402
115;-4.6299;2.6035;0.0000;-0.2262;0.7217
116;-4.6299;2.9183;0.0000;-0.2677;0.8358
117;-4.6302;3.2334;0.0000;-0.2858;0.8752
118;-4.6306;3.5483;0.0000;-0.2544;0.8200
119;-4.6311;3.8631;0.0000;-0.2487;0.7940
120;-4.6315;4.1779;0.0000;-0.2360;0.7669
121;-4.6320;4.4925;0.0000;-0.2247;0.7373
122;-4.6324;4.8072;0.0000;-0.2377;0.8139
123;-4.6328;5.1222;0.0000;-0.2602;0.8128
124;-4.6332;5.4369;0.0000;-0.2041;0.7438
125;-4.3353;5.4020;0.0000;-0.1878;0.7186
126;-4.0333;5.3978;0.0000;-0.1742;0.7246
127;-3.7279;5.3951;0.0000;-0.1620;0.7442
128;-3.4193;5.3942;0.0000;-0.1637;0.7458
129;-3.1090;5.3939;0.0000;-0.1942;0.7451
130;-2.7981;5.3938;0.0000;-0.1978;0.7266
131;-2.4867;5.3938;0.0000;-0.1606;0.6944
132;-2.1751;5.3938;0.0000;-0.1606;0.6867
133;-1.8636;5.3939;0.0000;-0.1680;0.6975
134;-1.5520;5.3938;0.0000;-0.1667;0.7164
135;-1.2404;5.3936;0.0000;-0.1824;0.7357
136;-0.9289;5.3935;0.0000;-0.1994;0.7365
137;-0.6174;5.3934;0.0000;-0.1714;0.7245
138;-0.3058;5.3934;0.0000;-0.1648;0.7231
139;0.0058;5.3933;0.0000;-0.2171;0.7308
140;0.3171;5.3933;0.0000;-0.2219;0.7352
141;0.6286;5.3931;0.0000;-0.2086;0.7239
142;0.9401;5.3929;0.0000;-0.2051;0.7043
143;1.2516;5.3929;0.0000;-0.2265;0.7039
144;1.5629;5.3928;0.0000;-0.2336;0.6964
145;1.8743;5.3929;0.0000;-0.2255;0.6678
146;2.1856;5.3929;0.0000;-0.2318;0.6659
147;2.4960;5.3930;0.0000;-0.2010;0.6673
148;2.8036;5.3935;0.0000;-0.2221;0.6481
149;3.1025;5.3944;0.0000;-0.2355;0.6568
150;3.3826;5.3966;0.0000;-0.2294;0.6788
151;3.6244;5.3885;0.0000;-0.2242;0.6820
152;-4.4317;5.1180;0.0000;-0.2184;0.8181
153;-4.1582;5.1163;0.0000;-0.1790;0.8024
154;-3.8659;5.1117;0.0000;-0.1653;0.7667
155;-3.5633;5.1101;0.0000;-0.1643;0.7654
156;-3.2557;5.1096;0.0000;-0.1825;0.7868
157;-2.9458;5.1094;0.0000;-0.1905;0.7786
158;-2.6350;5.1094;0.0000;-0.1753;0.7478
159;-2.3237;5.1095;0.0000;-0.1500;0.7364
160;-2.0122;5.1095;0.0000;-0.1873;0.7568
161;-1.7009;5.1093;0.0000;-0.1901;0.7650
162;-1.3894;5.1090;0.0000;-0.1789;0.7604
163;-1.0780;5.1088;0.0000;-0.1863;0.7569
164;-0.7666;5.1087;0.0000;-0.1854;0.7496
165;-0.4551;5.1086;0.0000;-0.1678;0.7508
166;-0.1436;5.1085;0.0000;-0.2159;0.7507
167;0.1675;5.1082;0.0000;-0.2605;0.7394
168;0.4787;5.1082;0.0000;-0.2330;0.7151
169;0.7900;5.1081;0.0000;-0.2092;0.6897
170;1.1014;5.1079;0.0000;-0.1978;0.6824
171;1.4128;5.1077;0.0000;-0.2347;0.6743
172;1.7240;5.1077;0.0000;-0.2377;0.6674
173;2.0352;5.1078;0.0000;-0.2193;0.6663
174;2.3461;5.1077;0.0000;-0.2194;0.6543
175;2.6553;5.1077;0.0000;-0.2109;0.6563
176;2.9600;5.1080;0.0000;-0.2300;0.6547
177;3.2571;5.1082;0.0000;-0.2306;0.6367
178;3.5485;5.1098;0.0000;-0.2214;0.6406
179;-4.3129;4.8416;0.0000;-0.2142;0.8286
180;-4.0139;4.8318;0.0000;-0.1823;0.8187
181;-3.7124;4.8290;0.0000;-0.1660;0.7987
182;-3.4065;4.8284;0.0000;-0.1764;0.7798
183;-3.0977;4.8283;0.0000;-0.1801;0.7577
184;-2.7873;4.8284;0.0000;-0.1692;0.7594
185;-2.4763;4.8284;0.0000;-0.1565;0.7990
186;-2.1649;4.8283;0.0000;-0.1870;0.8403
187;-1.8538;4.8282;0.0000;-0.2225;0.8445
188;-1.5425;4.8280;0.0000;-0.2049;0.8049
189;-1.2312;4.8277;0.0000;-0.1729;0.7583
190;-0.9197;4.8275;0.0000;-0.1775;0.7473
191;-0.6083;4.8273;0.0000;-0.1961;0.7588
192;-0.2970;4.8272;0.0000;-0.2036;0.7614
193;0.0143;4.8271;0.0000;-0.2380;0.7396
194;0.3254;4.8270;0.0000;-0.2498;0.7123
195;0.6367;4.8269;0.0000;-0.2141;0.7102
196;0.9480;4.8267;0.0000;-0.1916;0.7114
197;1.2594;4.8265;0.0000;-0.2294;0.6948
198;1.5705;4.8265;0.0000;-0.2483;0.6801
199;1.8817;4.8264;0.0000;-0.2181;0.6864
200;2.1928;4.8263;0.0000;-0.2124;0.6812
201;2.5026;4.8263;0.0000;-0.2303;0.6632
202;2.8088;4.8261;0.0000;-0.2248;0.6668
203;3.1052;4.8262;0.0000;-0.2303;0.6602
204;3.3825;4.8236;0.0000;-0.2284;0.6491
205;3.6215;4.8241;0.0000;-0.2223;0.6598
206;-4.4057;4.5814;0.0000;-0.2241;0.7516
207;-4.1468;4.5552;0.0000;-0.2041;0.7597
208;-3.8587;4.5505;0.0000;-0.1914;0.7637
209;-3.5578;4.5501;0.0000;-0.1820;0.7550
210;-3.2510;4.5504;0.0000;-0.1975;0.7555
211;-2.9416;4.5506;0.0000;-0.1708;0.7713
212;-2.6309;4.5505;0.0000;-0.1529;0.8046
213;-2.3197;4.5502;0.0000;-0.1721;0.8342
214;-2.0085;4.5500;0.0000;-0.1985;0.8474
215;-1.6972;4.5498;0.0000;-0.2136;0.8497
216;-1.3859;4.5498;0.0000;-0.2030;0.8183
217;-1.0746;4.5497;0.0000;-0.1782;0.7783
218;-0.7632;4.5495;0.0000;-0.2157;0.7654
219;-0.4520;4.5493;0.0000;-0.2257;0.7558
220;-0.1408;4.5491;0.0000;-0.1999;0.7467
221;0.1706;4.5490;0.0000;-0.2169;0.7545
222;0.4818;4.5490;0.0000;-0.2308;0.7606
223;0.7931;4.5488;0.0000;-0.2204;0.7492
224;1.1044;4.5486;0.0000;-0.2207;0.7401
225;1.4155;4.5484;0.0000;-0.2367;0.7332
226;1.7268;4.5484;0.0000;-0.2273;0.7167
227;2.0379;4.5483;0.0000;-0.2042;0.7024
228;2.3486;4.5483;0.0000;-0.2305;0.7066
229;2.6570;4.5480;0.0000;-0.2400;0.7148
230;2.9602;4.5479;0.0000;-0.2223;0.7142
231;3.2552;4.5477;0.0000;-0.2182;0.7207
232;3.5471;4.5360;0.0000;-0.2463;0.7254
233;-4.3303;4.2893;0.0000;-0.2217;0.7384
234;-4.0192;4.2760;0.0000;-0.2185;0.7196
235;-3.7130;4.2746;0.0000;-0.2004;0.7117
236;-3.4056;4.2747;0.0000;-0.2033;0.7389
237;-3.0966;4.2748;0.0000;-0.2031;0.7814
238;-2.7862;4.2749;0.0000;-0.1756;0.7933
239;-2.4752;4.2747;0.0000;-0.1704;0.7865
240;-2.1640;4.2745;0.0000;-0.1763;0.7817
241;-1.8527;4.2742;0.0000;-0.1926;0.7911
242;-1.5414;4.2741;0.0000;-0.2194;0.8178
243;-1.2301;4.2740;0.0000;-0.1919;0.8223
244;-0.9187;4.2739;0.0000;-0.2006;0.8060
245;-0.6075;4.2737;0.0000;-0.2318;0.7877
246;-0.2963;4.2736;0.0000;-0.2080;0.7622
247;0.0151;4.2735;0.0000;-0.1997;0.7559
248;0.3264;4.2733;0.0000;-0.2314;0.7749
249;0.6376;4.2732;0.0000;-0.2484;0.7722
250;0.9486;4.2731;0.0000;-0.2400;0.7479
251;1.2599;4.2728;0.0000;-0.2186;0.7415
252;1.5712;4.2728;0.0000;-0.2121;0.7324
253;1.8824;4.2728;0.0000;-0.2145;0.7012
254;2.1933;4.2727;0.0000;-0.2196;0.7068
255;2.5027;4.2724;0.0000;-0.2469;0.7398
256;2.8073;4.2721;0.0000;-0.2195;0.7458
257;3.1003;4.2724;0.0000;-0.2004;0.7373
258;3.3717;4.2722;0.0000;-0.2309;0.7366
259;3.6109;4.2421;0.0000;-0.2765;0.7435
260;-4.4149;4.0046;0.0000;-0.2294;0.7870
261;-4.1554;4.0037;0.0000;-0.2199;0.7771
262;-3.8621;4.0013;0.0000;-0.2218;0.7791
263;-3.5587;4.0009;0.0000;-0.2107;0.7774
264;-3.2511;4.0009;0.0000;-0.2134;0.7754
265;-2.9414;4.0009;0.0000;-0.2047;0.7807
266;-2.6308;4.0008;0.0000;-0.1994;0.7760
267;-2.3197;4.0006;0.0000;-0.1818;0.7720
268;-2.0083;4.0004;0.0000;-0.1713;0.7769
269;-1.6970;4.0001;0.0000;-0.2210;0.7741
270;-1.3859;3.9999;0.0000;-0.2256;0.7816
271;-1.0746;3.9999;0.0000;-0.1893;0.8051
272;-0.7632;3.9997;0.0000;-0.2040;0.8070
273;-0.4519;3.9996;0.0000;-0.2143;0.7866
274;-0.1406;3.9995;0.0000;-0.2115;0.7713
275;0.1706;3.9993;0.0000;-0.2318;0.7655
276;0.4818;3.9991;0.0000;-0.2497;0.7638
277;0.7929;3.9991;0.0000;-0.2506;0.7639
278;1.1041;3.9990;0.0000;-0.2288;0.7435
279;1.4154;3.9988;0.0000;-0.2164;0.7122
280;1.7266;3.9988;0.0000;-0.2136;0.6999
281;2.0377;3.9989;0.0000;-0.2045;0.7024
282;2.3481;3.9985;0.0000;-0.2218;0.7193
283;2.6556;3.9978;0.0000;-0.2308;0.7408
284;2.9556;3.9969;0.0000;-0.2120;0.7385
285;3.2419;3.9970;0.0000;-0.2118;0.7200
286;3.5160;3.9988;0.0000;-0.2550;0.7125
287;-4.3325;3.7243;0.0000;-0.2349;0.8188
288;-4.0204;3.7290;0.0000;-0.2206;0.8306
289;-3.7134;3.7281;0.0000;-0.2153;0.8350
290;-3.4056;3.7279;0.0000;-0.2135;0.8432
291;-3.0964;3.7278;0.0000;-0.2031;0.8362
292;-2.7860;3.7277;0.0000;-0.2198;0.8183
293;-2.4752;3.7276;0.0000;-0.2364;0.8046
294;-2.1642;3.7273;0.0000;-0.2015;0.8012
295;-1.8528;3.7271;0.0000;-0.1869;0.7933
296;-1.5415;3.7269;0.0000;-0.2208;0.7745
297;-1.2303;3.7267;0.0000;-0.2066;0.7818
298;-0.9189;3.7265;0.0000;-0.1868;0.7961
299;-0.6076;3.7264;0.0000;-0.2109;0.7995
300;-0.2964;3.7264;0.0000;-0.2265;0.8076
301;0.0149;3.7263;0.0000;-0.2288;0.8012
302;0.3261;3.7261;0.0000;-0.2413;0.7823
303;0.6373;3.7260;0.0000;-0.2504;0.7721
304;0.9484;3.7258;0.0000;-0.2409;0.7698
305;1.2596;3.7258;0.0000;-0.2330;0.7463
306;1.5708;3.7259;0.0000;-0.2253;0.7307
307;1.8820;3.7259;0.0000;-0.2030;0.7428
308;2.1929;3.7256;0.0000;-0.1940;0.7439
309;2.5023;3.7249;0.0000;-0.2192;0.7409
310;2.8065;3.7235;0.0000;-0.2411;0.7306
311;3.0985;3.7220;0.0000;-0.2272;0.7173
312;3.3691;3.7245;0.0000;-0.2100;0.7148
313;3.6092;3.7590;0.0000;-0.2572;0.7090
314;-4.4066;3.4383;0.0000;-0.2565;0.8579
315;-4.1476;3.4551;0.0000;-0.2326;0.8657
316;-3.8588;3.4559;0.0000;-0.2310;0.8680
317;-3.5574;3.4552;0.0000;-0.2160;0.8724
318;-3.2504;3.4549;0.0000;-0.2084;0.8603
319;-2.9410;3.4549;0.0000;-0.2056;0.8455
320;-2.6305;3.4549;0.0000;-0.2354;0.8531
321;-2.3197;3.4547;0.0000;-0.2347;0.8582
322;-2.0085;3.4544;0.0000;-0.2009;0.8412
323;-1.6972;3.4542;0.0000;-0.2056;0.8168
324;-1.3860;3.4541;0.0000;-0.2201;0.8010
325;-1.0747;3.4539;0.0000;-0.1964;0.7794
326;-0.7633;3.4538;0.0000;-0.1985;0.7740
327;-0.4520;3.4536;0.0000;-0.2268;0.8109
328;-0.1409;3.4535;0.0000;-0.2368;0.8291
329;0.1703;3.4534;0.0000;-0.2371;0.8121
330;0.4815;3.4533;0.0000;-0.2405;0.7895
331;0.7927;3.4532;0.0000;-0.2373;0.7715
332;1.1040;3.4531;0.0000;-0.2333;0.7651
333;1.4152;3.4532;0.0000;-0.2424;0.7689
334;1.7263;3.4532;0.0000;-0.2229;0.7796
335;2.0374;3.4531;0.0000;-0.2070;0.7945
336;2.3479;3.4526;0.0000;-0.2150;0.7969
337;2.6561;3.4515;0.0000;-0.2368;0.7780
338;2.9586;3.4498;0.0000;-0.2466;0.7658
339;3.2528;3.4502;0.0000;-0.2110;0.7517
340;3.5436;3.4684;0.0000;-0.2175;0.7225
341;-4.3117;3.1774;0.0000;-0.2542;0.8967
342;-4.0114;3.1818;0.0000;-0.2424;0.9153
343;-3.7101;3.1822;0.0000;-0.2489;0.9143
344;-3.4046;3.1822;0.0000;-0.2358;0.8889
345;-3.0961;3.1823;0.0000;-0.1993;0.8780
346;-2.7858;3.1823;0.0000;-0.1883;0.8932
347;-2.4750;3.1820;0.0000;-0.2202;0.8998
348;-2.1640;3.1818;0.0000;-0.2335;0.8869
349;-1.8529;3.1817;0.0000;-0.2195;0.8716
350;-1.5416;3.1816;0.0000;-0.2177;0.8516
351;-1.2303;3.1815;0.0000;-0.2146;0.8216
352;-0.9191;3.1815;0.0000;-0.2027;0.7960
353;-0.6078;3.1812;0.0000;-0.2155;0.7899
354;-0.2965;3.1810;0.0000;-0.2187;0.7934
355;0.0148;3.1809;0.0000;-0.2245;0.8010
356;0.3260;3.1808;0.0000;-0.2327;0.8047
357;0.6372;3.1808;0.0000;-0.2404;0.7906
358;0.9483;3.1808;0.0000;-0.2474;0.7730
359;1.2595;3.1807;0.0000;-0.2474;0.7812
360;1.5706;3.1808;0.0000;-0.2433;0.8117
361;1.8818;3.1807;0.0000;-0.2299;0.8295
362;2.1926;3.1803;0.0000;-0.2348;0.8222
363;2.5022;3.1796;0.0000;-0.2281;0.8003
364;2.8080;3.1784;0.0000;-0.2260;0.7829
365;3.1045;3.1775;0.0000;-0.2273;0.7675
366;3.3824;3.1822;0.0000;-0.2086;0.7404
367;3.6208;3.1872;0.0000;-0.2129;0.7229
368;-4.4326;2.9146;0.0000;-0.2522;0.8387
369;-4.1519;2.9102;0.0000;-0.2348;0.8666
370;-3.8588;2.9092;0.0000;-0.2415;0.8863
371;-3.5571;2.9094;0.0000;-0.2596;0.8774
372;-3.2505;2.9095;0.0000;-0.2368;0.8828
373;-2.9412;2.9095;0.0000;-0.1873;0.9159
374;-2.6306;2.9094;0.0000;-0.1946;0.9210
375;-2.3196;2.9093;0.0000;-0.2188;0.8825
376;-2.0085;2.9091;0.0000;-0.2270;0.8642
377;-1.6973;2.9090;0.0000;-0.2216;0.8825
378;-1.3860;2.9090;0.0000;-0.2184;0.8736
379;-1.0748;2.9090;0.0000;-0.2184;0.8381
380;-0.7635;2.9089;0.0000;-0.2203;0.8169
381;-0.4523;2.9087;0.0000;-0.2251;0.7855
382;-0.1410;2.9086;0.0000;-0.2093;0.7609
383;0.1703;2.9085;0.0000;-0.2107;0.7670
384;0.4815;2.9084;0.0000;-0.2261;0.7730
385;0.7928;2.9084;0.0000;-0.2400;0.7565
386;1.1040;2.9084;0.0000;-0.2478;0.7517
387;1.4151;2.9083;0.0000;-0.2575;0.7846
388;1.7262;2.9081;0.0000;-0.2513;0.8118
389;2.0372;2.9080;0.0000;-0.2427;0.7950
390;2.3477;2.9077;0.0000;-0.2334;0.7455
391;2.6563;2.9070;0.0000;-0.2198;0.7006
392;2.9604;2.9063;0.0000;-0.2204;0.6861
393;3.2574;2.9066;0.0000;-0.2251;0.6924
394;3.5485;2.9083;0.0000;-0.2208;0.7017
395;-4.3111;2.6470;0.0000;-0.2255;0.7380
396;-4.0109;2.6377;0.0000;-0.2249;0.7595
397;-3.7097;2.6366;0.0000;-0.2592;0.7873
398;-3.4044;2.6369;0.0000;-0.2526;0.8075
399;-3.0961;2.6370;0.0000;-0.2140;0.8255
400;-2.7860;2.6368;0.0000;-0.1996;0.8435
401;-2.4752;2.6367;0.0000;-0.2089;0.8401
402;-2.1641;2.6367;0.0000;-0.2196;0.8047
403;-1.8529;2.6366;0.0000;-0.2271;0.7899
404;-1.5417;2.6364;0.0000;-0.2196;0.8071
405;-1.2304;2.6365;0.0000;-0.2118;0.8000
406;-0.9192;2.6366;0.0000;-0.2213;0.7682
407;-0.6080;2.6364;0.0000;-0.2411;0.7410
408;-0.2968;2.6364;0.0000;-0.2250;0.7308
409;0.0145;2.6364;0.0000;-0.1916;0.7310
410;0.3259;2.6362;0.0000;-0.2108;0.7262
411;0.6371;2.6362;0.0000;-0.2419;0.7273
412;0.9482;2.6363;0.0000;-0.2522;0.7364
413;1.2594;2.6362;0.0000;-0.2512;0.7313
414;1.5705;2.6360;0.0000;-0.2461;0.7115
415;1.8816;2.6358;0.0000;-0.2397;0.6935
416;2.1925;2.6358;0.0000;-0.2279;0.6644
417;2.5022;2.6355;0.0000;-0.2185;0.6373
418;2.8078;2.6353;0.0000;-0.2214;0.6235
419;3.1036;2.6352;0.0000;-0.2200;0.6217
420;3.3801;2.6318;0.0000;-0.2265;0.6441
421;3.6162;2.6269;0.0000;-0.2396;0.6516
422;-4.4052;2.3901;0.0000;-0.2309;0.6969
423;-4.1464;2.3673;0.0000;-0.2240;0.6971
424;-3.8578;2.3640;0.0000;-0.2407;0.7019
425;-3.5570;2.3642;0.0000;-0.2466;0.7431
426;-3.2504;2.3646;0.0000;-0.2293;0.7650
427;-2.9412;2.3646;0.0000;-0.2193;0.7420
428;-2.6308;2.3644;0.0000;-0.2062;0.7207
429;-2.3197;2.3645;0.0000;-0.2058;0.7206
430;-2.0086;2.3645;0.0000;-0.2234;0.7170
431;-1.6974;2.3643;0.0000;-0.2258;0.7131
432;-1.3862;2.3643;0.0000;-0.2014;0.7156
433;-1.0749;2.3644;0.0000;-0.2066;0.7153
434;-0.7636;2.3645;0.0000;-0.2399;0.7031
435;-0.4525;2.3645;0.0000;-0.2464;0.6945
436;-0.1412;2.3643;0.0000;-0.2105;0.7118
437;0.1701;2.3642;0.0000;-0.2014;0.7211
438;0.4813;2.3641;0.0000;-0.2355;0.7172
439;0.7925;2.3641;0.0000;-0.2457;0.7360
440;1.1037;2.3641;0.0000;-0.2454;0.7375
441;1.4148;2.3640;0.0000;-0.2367;0.6967
442;1.7261;2.3640;0.0000;-0.2183;0.6469
443;2.0372;2.3640;0.0000;-0.2207;0.6146
444;2.3477;2.3640;0.0000;-0.2239;0.6087
445;2.6557;2.3636;0.0000;-0.2305;0.6200
446;2.9579;2.3636;0.0000;-0.2247;0.6293
447;3.2508;2.3630;0.0000;-0.2212;0.6336
448;3.5402;2.3466;0.0000;-0.2441;0.6425
449;-4.3302;2.1031;0.0000;-0.2528;0.7794
450;-4.0191;2.0928;0.0000;-0.2287;0.7490
451;-3.7127;2.0920;0.0000;-0.2203;0.7433
452;-3.4054;2.0923;0.0000;-0.2245;0.7417
453;-3.0965;2.0925;0.0000;-0.2334;0.7215
454;-2.7863;2.0925;0.0000;-0.2220;0.6960
455;-2.4754;2.0925;0.0000;-0.1996;0.6945
456;-2.1643;2.0925;0.0000;-0.2202;0.7208
457;-1.8531;2.0924;0.0000;-0.2158;0.7302
458;-1.5418;2.0922;0.0000;-0.1971;0.7295
459;-1.2305;2.0923;0.0000;-0.1955;0.7448
460;-0.9192;2.0924;0.0000;-0.2234;0.7627
461;-0.6080;2.0924;0.0000;-0.2511;0.7723
462;-0.2969;2.0923;0.0000;-0.2395;0.7637
463;0.0143;2.0921;0.0000;-0.2234;0.7432
464;0.3256;2.0921;0.0000;-0.2303;0.7373
465;0.6368;2.0920;0.0000;-0.2347;0.7384
466;0.9480;2.0920;0.0000;-0.2255;0.7293
467;1.2593;2.0920;0.0000;-0.2263;0.7098
468;1.5705;2.0920;0.0000;-0.2137;0.6880
469;1.8817;2.0921;0.0000;-0.2054;0.6855
470;2.1926;2.0922;0.0000;-0.2207;0.6979
471;2.5018;2.0920;0.0000;-0.2363;0.6967
472;2.8059;2.0915;0.0000;-0.2396;0.6939
473;3.0975;2.0913;0.0000;-0.2288;0.7089
474;3.3668;2.0909;0.0000;-0.2293;0.7149
475;3.6059;2.0548;0.0000;-0.2446;0.7156
476;-4.4145;1.8255;0.0000;-0.2537;0.8273
477;-4.1547;1.8210;0.0000;-0.2410;0.8126
478;-3.8616;1.8204;0.0000;-0.2169;0.7967
479;-3.5584;1.8203;0.0000;-0.2117;0.7689
480;-3.2509;1.8204;0.0000;-0.2271;0.7513
481;-2.9414;1.8205;0.0000;-0.2355;0.7539
482;-2.6309;1.8205;0.0000;-0.2130;0.7715
483;-2.3198;1.8204;0.0000;-0.2076;0.7894
484;-2.0087;1.8203;0.0000;-0.2205;0.7974
485;-1.6975;1.8201;0.0000;-0.2149;0.7968
486;-1.3862;1.8200;0.0000;-0.2066;0.8013
487;-1.0749;1.8200;0.0000;-0.2034;0.8188
488;-0.7636;1.8201;0.0000;-0.2206;0.8219
489;-0.4524;1.8200;0.0000;-0.2409;0.8146
490;-0.1413;1.8200;0.0000;-0.2548;0.7879
491;0.1698;1.8199;0.0000;-0.2501;0.7556
492;0.4810;1.8198;0.0000;-0.2271;0.7386
493;0.7923;1.8198;0.0000;-0.2106;0.7280
494;1.1036;1.8198;0.0000;-0.2130;0.7290
495;1.4148;1.8200;0.0000;-0.2137;0.7279
496;1.7261;1.8200;0.0000;-0.1964;0.7447
497;2.0373;1.8199;0.0000;-0.2017;0.7795
498;2.3476;1.8198;0.0000;-0.2300;0.8002
499;2.6549;1.8192;0.0000;-0.2450;0.8095
500;2.9545;1.8181;0.0000;-0.2462;0.8020
501;3.2396;1.8175;0.0000;-0.2374;0.7858
502;3.5100;1.8214;0.0000;-0.2348;0.7717
503;-4.3303;1.5400;0.0000;-0.2417;0.8071
504;-4.0191;1.5483;0.0000;-0.2315;0.8110
505;-3.7128;1.5484;0.0000;-0.2214;0.7979
506;-3.4055;1.5483;0.0000;-0.2229;0.7859
507;-3.0965;1.5482;0.0000;-0.2276;0.7921
508;-2.7863;1.5482;0.0000;-0.2360;0.8081
509;-2.4755;1.5480;0.0000;-0.2240;0.8256
510;-2.1645;1.5479;0.0000;-0.2013;0.8271
511;-1.8531;1.5478;0.0000;-0.2056;0.8113
512;-1.5419;1.5476;0.0000;-0.2369;0.8006
513;-1.2308;1.5476;0.0000;-0.2342;0.8090
514;-0.9195;1.5477;0.0000;-0.2072;0.8107
515;-0.6082;1.5477;0.0000;-0.2055;0.7883
516;-0.2969;1.5477;0.0000;-0.2285;0.7710
517;0.0142;1.5477;0.0000;-0.2485;0.7498
518;0.3254;1.5477;0.0000;-0.2333;0.7109
519;0.6366;1.5478;0.0000;-0.2164;0.7001
520;0.9479;1.5477;0.0000;-0.2155;0.7117
521;1.2592;1.5477;0.0000;-0.2022;0.7184
522;1.5705;1.5478;0.0000;-0.1965;0.7343
523;1.8818;1.5477;0.0000;-0.2040;0.7574
524;2.1926;1.5475;0.0000;-0.2238;0.7830
525;2.5018;1.5470;0.0000;-0.2340;0.8014
526;2.8062;1.5456;0.0000;-0.2356;0.8045
527;3.0988;1.5439;0.0000;-0.2420;0.7880
528;3.3711;1.5461;0.0000;-0.2432;0.7513
529;3.6128;1.5951;0.0000;-0.2441;0.7275
530;-4.4039;1.2495;0.0000;-0.2382;0.8075
531;-4.1462;1.2732;0.0000;-0.2290;0.8113
532;-3.8579;1.2761;0.0000;-0.2279;0.7962
533;-3.5571;1.2761;0.0000;-0.2313;0.7830
534;-3.2506;1.2760;0.0000;-0.2284;0.7783
535;-2.9413;1.2759;0.0000;-0.2243;0.7746
536;-2.6309;1.2757;0.0000;-0.2549;0.7759
537;-2.3201;1.2756;0.0000;-0.2283;0.7851
538;-2.0089;1.2755;0.0000;-0.1871;0.7760
539;-1.6976;1.2755;0.0000;-0.2187;0.7515
540;-1.3865;1.2754;0.0000;-0.2467;0.7460
541;-1.0753;1.2753;0.0000;-0.2352;0.7451
542;-0.7641;1.2754;0.0000;-0.2004;0.7273
543;-0.4527;1.2755;0.0000;-0.1928;0.7085
544;-0.1414;1.2755;0.0000;-0.2072;0.7003
545;0.1699;1.2757;0.0000;-0.2128;0.6836
546;0.4812;1.2758;0.0000;-0.2241;0.6717
547;0.7924;1.2757;0.0000;-0.2374;0.6682
548;1.1036;1.2757;0.0000;-0.2084;0.6686
549;1.4150;1.2758;0.0000;-0.2004;0.6788
550;1.7262;1.2757;0.0000;-0.2171;0.6793
551;2.0373;1.2755;0.0000;-0.2177;0.6775
552;2.3477;1.2751;0.0000;-0.2268;0.6854
553;2.6560;1.2740;0.0000;-0.2211;0.6852
554;2.9588;1.2721;0.0000;-0.2295;0.6908
555;3.2531;1.2729;0.0000;-0.2482;0.6912
556;3.5443;1.2915;0.0000;-0.2444;0.6821
557;-4.3105;0.9917;0.0000;-0.2321;0.7950
558;-4.0108;1.0017;0.0000;-0.2240;0.7696
559;-3.7098;1.0033;0.0000;-0.2239;0.7488
560;-3.4045;1.0036;0.0000;-0.2396;0.7265
561;-3.0962;1.0037;0.0000;-0.2294;0.7099
562;-2.7863;1.0037;0.0000;-0.2516;0.7107
563;-2.4757;1.0035;0.0000;-0.2588;0.7204
564;-2.1647;1.0034;0.0000;-0.1996;0.7298
565;-1.8534;1.0034;0.0000;-0.1946;0.7223
566;-1.5421;1.0033;0.0000;-0.2237;0.6956
567;-1.2309;1.0033;0.0000;-0.2316;0.6590
568;-0.9197;1.0033;0.0000;-0.2090;0.6414
569;-0.6084;1.0035;0.0000;-0.1963;0.6410
570;-0.2970;1.0036;0.0000;-0.2059;0.6276
571;0.0142;1.0037;0.0000;-0.2058;0.6286
572;0.3256;1.0038;0.0000;-0.2079;0.6532
573;0.6368;1.0038;0.0000;-0.2330;0.6575
574;0.9480;1.0039;0.0000;-0.2249;0.6397
575;1.2593;1.0038;0.0000;-0.2031;0.6403
576;1.5706;1.0038;0.0000;-0.2155;0.6399
577;1.8817;1.0038;0.0000;-0.2150;0.6226
578;2.1927;1.0035;0.0000;-0.2236;0.6114
579;2.5024;1.0027;0.0000;-0.2231;0.6067
580;2.8086;1.0008;0.0000;-0.2131;0.6068
581;3.1050;0.9986;0.0000;-0.2262;0.6121
582;3.3805;1.0046;0.0000;-0.2488;0.6290
583;3.6182;1.0166;0.0000;-0.2377;0.6435
584;-4.4320;0.7223;0.0000;-0.2465;0.7678
585;-4.1514;0.7289;0.0000;-0.2348;0.7530
586;-3.8587;0.7306;0.0000;-0.2305;0.7337
587;-3.5572;0.7313;0.0000;-0.2324;0.7112
588;-3.2506;0.7317;0.0000;-0.2351;0.6980
589;-2.9414;0.7318;0.0000;-0.2321;0.6973
590;-2.6311;0.7316;0.0000;-0.2658;0.6978
591;-2.3204;0.7314;0.0000;-0.2362;0.6919
592;-2.0092;0.7313;0.0000;-0.2000;0.6796
593;-1.6979;0.7314;0.0000;-0.2114;0.6584
594;-1.3866;0.7314;0.0000;-0.2080;0.6257
595;-1.0753;0.7316;0.0000;-0.1922;0.5977
596;-0.7639;0.7316;0.0000;-0.1938;0.6051
597;-0.4527;0.7318;0.0000;-0.2112;0.6117
598;-0.1414;0.7319;0.0000;-0.2239;0.6070
599;0.1698;0.7319;0.0000;-0.2200;0.6232
600;0.4811;0.7319;0.0000;-0.2056;0.6327
601;0.7924;0.7319;0.0000;-0.2137;0.6238
602;1.1037;0.7320;0.0000;-0.2088;0.6135
603;1.4149;0.7320;0.0000;-0.2022;0.6141
604;1.7262;0.7320;0.0000;-0.2078;0.6170
605;2.0374;0.7318;0.0000;-0.2172;0.6047
606;2.3482;0.7314;0.0000;-0.2238;0.5869
607;2.6580;0.7299;0.0000;-0.2104;0.5808
608;2.9648;0.7263;0.0000;-0.2217;0.5790
609;3.2650;0.7236;0.0000;-0.2330;0.5867
610;3.5535;0.7325;0.0000;-0.2442;0.6084
611;-4.3110;0.4620;0.0000;-0.2494;0.7292
612;-4.0111;0.4582;0.0000;-0.2507;0.7518
613;-3.7101;0.4587;0.0000;-0.2468;0.7533
614;-3.4048;0.4593;0.0000;-0.2359;0.7379
615;-3.0965;0.4596;0.0000;-0.2249;0.7185
616;-2.7865;0.4596;0.0000;-0.2400;0.6856
617;-2.4759;0.4594;0.0000;-0.2428;0.6460
618;-2.1648;0.4593;0.0000;-0.2136;0.6188
619;-1.8536;0.4594;0.0000;-0.2259;0.6126
620;-1.5425;0.4595;0.0000;-0.2226;0.6133
621;-1.2312;0.4597;0.0000;-0.1850;0.6112
622;-0.9198;0.4599;0.0000;-0.1819;0.6019
623;-0.6084;0.4599;0.0000;-0.2013;0.6022
624;-0.2971;0.4600;0.0000;-0.2115;0.6213
625;0.0141;0.4601;0.0000;-0.2334;0.6392
626;0.3253;0.4601;0.0000;-0.2072;0.6307
627;0.6367;0.4602;0.0000;-0.1916;0.6104
628;0.9480;0.4602;0.0000;-0.2073;0.6153
629;1.2593;0.4602;0.0000;-0.1964;0.6205
630;1.5707;0.4602;0.0000;-0.1922;0.6113
631;1.8820;0.4602;0.0000;-0.2215;0.6030
632;2.1931;0.4600;0.0000;-0.2242;0.5964
633;2.5046;0.4593;0.0000;-0.1927;0.5867
634;2.8169;0.4573;0.0000;-0.2063;0.5805
635;3.1324;0.4546;0.0000;-0.2260;0.5811
636;3.4577;0.4628;0.0000;-0.2375;0.5820
637;-4.4064;0.2012;0.0000;-0.2397;0.7226
638;-4.1473;0.1857;0.0000;-0.2357;0.7040
639;-3.8585;0.1854;0.0000;-0.2679;0.7085
640;-3.5575;0.1866;0.0000;-0.2566;0.7190
641;-3.2509;0.1873;0.0000;-0.2397;0.6926
642;-2.9417;0.1876;0.0000;-0.2341;0.6429
643;-2.6314;0.1877;0.0000;-0.2396;0.6038
644;-2.3205;0.1877;0.0000;-0.2158;0.5856
645;-2.0092;0.1877;0.0000;-0.2120;0.5769
646;-1.6981;0.1877;0.0000;-0.2296;0.5766
647;-1.3868;0.1878;0.0000;-0.1980;0.5827
648;-1.0755;0.1880;0.0000;-0.1814;0.5882
649;-0.7641;0.1881;0.0000;-0.2012;0.5917
650;-0.4528;0.1882;0.0000;-0.2011;0.6093
651;-0.1415;0.1882;0.0000;-0.2140;0.6369
652;0.1697;0.1881;0.0000;-0.2082;0.6449
653;0.4811;0.1883;0.0000;-0.1809;0.6469
654;0.7924;0.1884;0.0000;-0.2051;0.6598
655;1.1037;0.1883;0.0000;-0.2161;0.6629
656;1.4150;0.1883;0.0000;-0.1942;0.6563
657;1.7264;0.1884;0.0000;-0.2018;0.6477
658;2.0376;0.1883;0.0000;-0.2272;0.6471
659;2.3490;0.1881;0.0000;-0.2069;0.6534
660;2.6612;0.1874;0.0000;-0.1821;0.6431
661;2.9749;0.1861;0.0000;-0.2106;0.6357
662;3.2895;0.1867;0.0000;-0.2216;0.6454
663;3.5909;0.2067;0.0000;-0.2369;0.6436
664;-4.3316;-0.0822;0.0000;-0.2086;0.6765
665;-4.0195;-0.0863;0.0000;-0.2463;0.6390
666;-3.7131;-0.0855;0.0000;-0.2771;0.6210
667;-3.4059;-0.0849;0.0000;-0.2698;0.6319
668;-3.0970;-0.0843;0.0000;-0.2451;0.6327
669;-2.7868;-0.0840;0.0000;-0.2321;0.6110
670;-2.4761;-0.0841;0.0000;-0.2314;0.5848
671;-2.1650;-0.0841;0.0000;-0.2128;0.5572
672;-1.8537;-0.0839;0.0000;-0.2129;0.5393
673;-1.5425;-0.0839;0.0000;-0.1982;0.5432
674;-1.2311;-0.0837;0.0000;-0.1789;0.5636
675;-0.9198;-0.0836;0.0000;-0.1967;0.5929
676;-0.6085;-0.0836;0.0000;-0.2058;0.6092
677;-0.2972;-0.0837;0.0000;-0.1989;0.6063
678;0.0142;-0.0837;0.0000;-0.1971;0.6015
679;0.3255;-0.0837;0.0000;-0.1820;0.6288
680;0.6369;-0.0837;0.0000;-0.1952;0.6846
681;0.9482;-0.0837;0.0000;-0.2248;0.7086
682;1.2593;-0.0836;0.0000;-0.2222;0.7066
683;1.5706;-0.0836;0.0000;-0.1995;0.7072
684;1.8820;-0.0836;0.0000;-0.2039;0.7050
685;2.1935;-0.0837;0.0000;-0.2186;0.7012
686;2.5056;-0.0838;0.0000;-0.1998;0.7088
687;2.8199;-0.0840;0.0000;-0.1946;0.7178
688;3.1391;-0.0840;0.0000;-0.2106;0.7190
689;3.4688;-0.0853;0.0000;-0.2188;0.7179
690;-4.4107;-0.3615;0.0000;-0.2105;0.5931
691;-4.1533;-0.3591;0.0000;-0.2234;0.6011
692;-3.8610;-0.3567;0.0000;-0.2457;0.5881
693;-3.5584;-0.3564;0.0000;-0.2687;0.5737
694;-3.2513;-0.3562;0.0000;-0.2645;0.5932
695;-2.9420;-0.3560;0.0000;-0.2409;0.6237
696;-2.6314;-0.3558;0.0000;-0.2443;0.6196
697;-2.3206;-0.3557;0.0000;-0.2466;0.5821
698;-2.0095;-0.3555;0.0000;-0.2121;0.5646
699;-1.6982;-0.3554;0.0000;-0.1794;0.5650
700;-1.3868;-0.3555;0.0000;-0.1702;0.5717
701;-1.0754;-0.3554;0.0000;-0.1792;0.6012
702;-0.7641;-0.3554;0.0000;-0.2060;0.6113
703;-0.4528;-0.3554;0.0000;-0.2071;0.6069
704;-0.1415;-0.3554;0.0000;-0.1932;0.6106
705;0.1699;-0.3554;0.0000;-0.1919;0.6307
706;0.4812;-0.3556;0.0000;-0.1944;0.6753
707;0.7925;-0.3558;0.0000;-0.2110;0.7132
708;1.1038;-0.3558;0.0000;-0.2120;0.7293
709;1.4151;-0.3558;0.0000;-0.2048;0.7307
710;1.7264;-0.3557;0.0000;-0.2154;0.7348
711;2.0377;-0.3557;0.0000;-0.2218;0.7403
712;2.3493;-0.3557;0.0000;-0.2031;0.7451
713;2.6618;-0.3556;0.0000;-0.1848;0.7657
714;2.9757;-0.3553;0.0000;-0.2042;0.7660
715;3.2887;-0.3556;0.0000;-0.2191;0.7378
716;3.5899;-0.3795;0.0000;-0.2256;0.7145
717;-4.3275;-0.6430;0.0000;-0.2408;0.5699
718;-4.0170;-0.6282;0.0000;-0.2236;0.5943
719;-3.7119;-0.6276;0.0000;-0.2263;0.6030
720;-3.4053;-0.6277;0.0000;-0.2471;0.5981
721;-3.0966;-0.6278;0.0000;-0.2552;0.6067
722;-2.7867;-0.6277;0.0000;-0.2623;0.6288
723;-2.4761;-0.6276;0.0000;-0.2667;0.6321
724;-2.1652;-0.6274;0.0000;-0.2343;0.6362
725;-1.8539;-0.6273;0.0000;-0.1803;0.6494
726;-1.5424;-0.6272;0.0000;-0.1696;0.6465
727;-1.2311;-0.6272;0.0000;-0.1791;0.6399
728;-0.9197;-0.6272;0.0000;-0.1893;0.6381
729;-0.6084;-0.6272;0.0000;-0.2032;0.6373
730;-0.2971;-0.6272;0.0000;-0.1854;0.6502
731;0.0143;-0.6273;0.0000;-0.1903;0.6742
732;0.3256;-0.6275;0.0000;-0.2113;0.6895
733;0.6368;-0.6278;0.0000;-0.2086;0.6886
734;0.9481;-0.6279;0.0000;-0.2028;0.6930
735;1.2594;-0.6279;0.0000;-0.1931;0.7034
736;1.5708;-0.6279;0.0000;-0.1998;0.7266
737;1.8822;-0.6279;0.0000;-0.2237;0.7559
738;2.1936;-0.6279;0.0000;-0.2160;0.7615
739;2.5057;-0.6278;0.0000;-0.1915;0.7567
740;2.8191;-0.6276;0.0000;-0.1950;0.7433
741;3.1349;-0.6281;0.0000;-0.2172;0.7210
742;3.4559;-0.6317;0.0000;-0.2236;0.7074
743;-4.4013;-0.9344;0.0000;-0.2576;0.6061
744;-4.1416;-0.9002;0.0000;-0.2288;0.6216
745;-3.8555;-0.8992;0.0000;-0.2099;0.6476
746;-3.5561;-0.8995;0.0000;-0.2225;0.6542
747;-3.2503;-0.8996;0.0000;-0.2427;0.6440
748;-2.9415;-0.8996;0.0000;-0.2679;0.6476
749;-2.6313;-0.8995;0.0000;-0.2676;0.6686
750;-2.3206;-0.8994;0.0000;-0.2517;0.6890
751;-2.0095;-0.8993;0.0000;-0.2153;0.6990
752;-1.6982;-0.8993;0.0000;-0.1949;0.7012
753;-1.3869;-0.8992;0.0000;-0.1886;0.7026
754;-1.0755;-0.8992;0.0000;-0.1657;0.6956
755;-0.7641;-0.8992;0.0000;-0.1857;0.6918
756;-0.4528;-0.8992;0.0000;-0.1907;0.6883
757;-0.1414;-0.8992;0.0000;-0.1749;0.6923
758;0.1700;-0.8994;0.0000;-0.2086;0.7049
759;0.4812;-0.8996;0.0000;-0.2087;0.6967
760;0.7926;-0.8998;0.0000;-0.1906;0.6690
761;1.1039;-0.8999;0.0000;-0.1982;0.6590
762;1.4152;-0.8999;0.0000;-0.2029;0.6802
763;1.7265;-0.9000;0.0000;-0.2093;0.7131
764;2.0379;-0.9001;0.0000;-0.2157;0.7333
765;2.3494;-0.9000;0.0000;-0.1942;0.7194
766;2.6614;-0.9000;0.0000;-0.1764;0.6863
767;2.9733;-0.9005;0.0000;-0.2006;0.6783
768;3.2812;-0.9048;0.0000;-0.2304;0.7040
769;3.5675;-0.8881;0.0000;-0.2323;0.7178
770;-4.2967;-1.1716;0.0000;-0.2472;0.6724
771;-4.0042;-1.1723;0.0000;-0.2172;0.6793
772;-3.7072;-1.1722;0.0000;-0.2104;0.6797
773;-3.4036;-1.1718;0.0000;-0.2236;0.6769
774;-3.0960;-1.1716;0.0000;-0.2457;0.6875
775;-2.7864;-1.1716;0.0000;-0.2654;0.7135
776;-2.4758;-1.1716;0.0000;-0.2479;0.7482
777;-2.1649;-1.1715;0.0000;-0.2276;0.7461
778;-1.8538;-1.1714;0.0000;-0.2320;0.7281
779;-1.5426;-1.1713;0.0000;-0.2136;0.7478
780;-1.2313;-1.1713;0.0000;-0.1681;0.7673
781;-0.9198;-1.1713;0.0000;-0.1699;0.7535
782;-0.6084;-1.1712;0.0000;-0.1996;0.7466
783;-0.2971;-1.1712;0.0000;-0.1887;0.7419
784;0.0143;-1.1714;0.0000;-0.1895;0.7290
785;0.3256;-1.1716;0.0000;-0.2009;0.7201
786;0.6369;-1.1717;0.0000;-0.1864;0.6944
787;0.9483;-1.1717;0.0000;-0.1869;0.6689
788;1.2596;-1.1718;0.0000;-0.2041;0.6772
789;1.5709;-1.1719;0.0000;-0.2049;0.6887
790;1.8822;-1.1721;0.0000;-0.2073;0.6799
791;2.1938;-1.1721;0.0000;-0.1939;0.6697
792;2.5061;-1.1719;0.0000;-0.1691;0.6621
793;2.8205;-1.1717;0.0000;-0.1838;0.6752
794;3.1406;-1.1727;0.0000;-0.2249;0.7117
795;3.4787;-1.1768;0.0000;-0.2388;0.7501
796;-4.4001;-1.4074;0.0000;-0.2440;0.7211
797;-4.1404;-1.4440;0.0000;-0.2215;0.7030
798;-3.8546;-1.4458;0.0000;-0.2062;0.6913
799;-3.5557;-1.4447;0.0000;-0.2107;0.6767
800;-3.2500;-1.4440;0.0000;-0.2243;0.6796
801;-2.9412;-1.4438;0.0000;-0.2511;0.7024
802;-2.6311;-1.4438;0.0000;-0.2606;0.7188
803;-2.3204;-1.4438;0.0000;-0.2280;0.7336
804;-2.0092;-1.4436;0.0000;-0.2181;0.7444
805;-1.6980;-1.4435;0.0000;-0.2315;0.7654
806;-1.3868;-1.4436;0.0000;-0.2032;0.7881
807;-1.0754;-1.4436;0.0000;-0.1759;0.7824
808;-0.7641;-1.4435;0.0000;-0.1961;0.7773
809;-0.4528;-1.4435;0.0000;-0.2073;0.7793
810;-0.1415;-1.4435;0.0000;-0.2083;0.7646
811;0.1698;-1.4436;0.0000;-0.1877;0.7380
812;0.4812;-1.4438;0.0000;-0.1778;0.7124
813;0.7926;-1.4437;0.0000;-0.1804;0.7002
814;1.1039;-1.4437;0.0000;-0.1849;0.6959
815;1.4153;-1.4439;0.0000;-0.1909;0.6896
816;1.7267;-1.4440;0.0000;-0.2004;0.6843
817;2.0380;-1.4440;0.0000;-0.1978;0.6846
818;2.3496;-1.4438;0.0000;-0.1713;0.6878
819;2.6615;-1.4436;0.0000;-0.1791;0.6973
820;2.9728;-1.4432;0.0000;-0.2090;0.7183
821;3.2801;-1.4433;0.0000;-0.2325;0.7480
822;3.5635;-1.4659;0.0000;-0.2514;0.7693
823;-4.3270;-1.6992;0.0000;-0.2216;0.7273
824;-4.0163;-1.7167;0.0000;-0.2020;0.6952
825;-3.7113;-1.7173;0.0000;-0.1926;0.6858
826;-3.4048;-1.7163;0.0000;-0.2233;0.6988
827;-3.0963;-1.7158;0.0000;-0.2334;0.6928
828;-2.7864;-1.7158;0.0000;-0.2337;0.6713
829;-2.4756;-1.7158;0.0000;-0.2322;0.6564
830;-2.1646;-1.7158;0.0000;-0.2186;0.6901
831;-1.8534;-1.7157;0.0000;-0.2336;0.7274
832;-1.5423;-1.7158;0.0000;-0.2346;0.7198
833;-1.2311;-1.7159;0.0000;-0.1962;0.7218
834;-0.9197;-1.7157;0.0000;-0.1961;0.7550
835;-0.6084;-1.7157;0.0000;-0.1990;0.7675
836;-0.2971;-1.7157;0.0000;-0.2220;0.7754
837;0.0141;-1.7158;0.0000;-0.2103;0.7794
838;0.3255;-1.7158;0.0000;-0.1703;0.7473
839;0.6369;-1.7158;0.0000;-0.1668;0.7216
840;0.9483;-1.7158;0.0000;-0.1634;0.7098
841;1.2598;-1.7158;0.0000;-0.1759;0.6923
842;1.5711;-1.7159;0.0000;-0.1905;0.6868
843;1.8825;-1.7161;0.0000;-0.2017;0.6962
844;2.1940;-1.7161;0.0000;-0.1895;0.7073
845;2.5059;-1.7159;0.0000;-0.1872;0.7097
846;2.8184;-1.7157;0.0000;-0.2035;0.7170
847;3.1327;-1.7157;0.0000;-0.2128;0.7363
848;3.4534;-1.7216;0.0000;-0.2466;0.7426
849;-4.4104;-1.9810;0.0000;-0.2168;0.7406
850;-4.1533;-1.9847;0.0000;-0.1985;0.7233
851;-3.8609;-1.9886;0.0000;-0.1891;0.7063
852;-3.5581;-1.9886;0.0000;-0.1941;0.7259
853;-3.2509;-1.9880;0.0000;-0.2182;0.7380
854;-2.9414;-1.9878;0.0000;-0.2176;0.7171
855;-2.6310;-1.9877;0.0000;-0.2249;0.7019
856;-2.3200;-1.9877;0.0000;-0.2234;0.7095
857;-2.0089;-1.9878;0.0000;-0.2287;0.7228
858;-1.6977;-1.9878;0.0000;-0.2411;0.7119
859;-1.3866;-1.9878;0.0000;-0.2122;0.6944
860;-1.0751;-1.9879;0.0000;-0.1985;0.7155
861;-0.7640;-1.9879;0.0000;-0.2215;0.7433
862;-0.4527;-1.9879;0.0000;-0.2156;0.7647
863;-0.1414;-1.9880;0.0000;-0.2183;0.7791
864;0.1698;-1.9881;0.0000;-0.1772;0.7605
865;0.4813;-1.9880;0.0000;-0.1602;0.7314
866;0.7928;-1.9879;0.0000;-0.1609;0.7242
867;1.1042;-1.9878;0.0000;-0.1627;0.7201
868;1.4156;-1.9879;0.0000;-0.1832;0.7082
869;1.7270;-1.9880;0.0000;-0.2064;0.6988
870;2.0383;-1.9881;0.0000;-0.2118;0.6843
871;2.3498;-1.9880;0.0000;-0.1877;0.6801
872;2.6615;-1.9879;0.0000;-0.1952;0.7043
873;2.9728;-1.9876;0.0000;-0.2110;0.7341
874;3.2820;-1.9864;0.0000;-0.2325;0.7361
875;3.5875;-1.9814;0.0000;-0.2388;0.7286
876;-4.3309;-2.2609;0.0000;-0.2051;0.7079
877;-4.0197;-2.2587;0.0000;-0.1749;0.6995
878;-3.7131;-2.2600;0.0000;-0.1782;0.7096
879;-3.4055;-2.2601;0.0000;-0.1999;0.7132
880;-3.0965;-2.2599;0.0000;-0.2050;0.7172
881;-2.7862;-2.2598;0.0000;-0.2128;0.7363
882;-2.4754;-2.2599;0.0000;-0.2316;0.7555
883;-2.1643;-2.2599;0.0000;-0.2304;0.7595
884;-1.8532;-2.2599;0.0000;-0.2342;0.7601
885;-1.5421;-2.2599;0.0000;-0.2398;0.7501
886;-1.2308;-2.2599;0.0000;-0.1987;0.7334
887;-0.9195;-2.2600;0.0000;-0.2051;0.7317
888;-0.6082;-2.2601;0.0000;-0.2234;0.7491
889;-0.2970;-2.2602;0.0000;-0.2231;0.7552
890;0.0143;-2.2603;0.0000;-0.1932;0.7439
891;0.3257;-2.2601;0.0000;-0.1659;0.7315
892;0.6371;-2.2600;0.0000;-0.1744;0.7174
893;0.9485;-2.2600;0.0000;-0.1704;0.7106
894;1.2599;-2.2600;0.0000;-0.1707;0.7017
895;1.5713;-2.2600;0.0000;-0.1980;0.6866
896;1.8826;-2.2601;0.0000;-0.2147;0.6729
897;2.1940;-2.2601;0.0000;-0.2033;0.6650
898;2.5058;-2.2600;0.0000;-0.1891;0.6796
899;2.8181;-2.2601;0.0000;-0.1896;0.6985
900;3.1317;-2.2587;0.0000;-0.2122;0.6958
901;3.4515;-2.2472;0.0000;-0.2227;0.6970
902;-4.4051;-2.5438;0.0000;-0.1848;0.6652
903;-4.1468;-2.5306;0.0000;-0.1678;0.6748
904;-3.8585;-2.5312;0.0000;-0.1884;0.6847
905;-3.5574;-2.5319;0.0000;-0.2049;0.6884
906;-3.2506;-2.5319;0.0000;-0.1957;0.6858
907;-2.9412;-2.5319;0.0000;-0.1937;0.6918
908;-2.6307;-2.5320;0.0000;-0.2327;0.6981
909;-2.3199;-2.5321;0.0000;-0.2565;0.6911
910;-2.0088;-2.5322;0.0000;-0.2278;0.6995
911;-1.6976;-2.5321;0.0000;-0.2246;0.7343
912;-1.3864;-2.5321;0.0000;-0.2281;0.7507
913;-1.0751;-2.5321;0.0000;-0.1891;0.7336
914;-0.7637;-2.5322;0.0000;-0.1992;0.7227
915;-0.4525;-2.5323;0.0000;-0.2232;0.7164
916;-0.1413;-2.5324;0.0000;-0.2040;0.7021
917;0.1701;-2.5324;0.0000;-0.1783;0.6986
918;0.4815;-2.5322;0.0000;-0.1761;0.7091
919;0.7929;-2.5320;0.0000;-0.1883;0.7037
920;1.1042;-2.5320;0.0000;-0.1903;0.6896
921;1.4155;-2.5319;0.0000;-0.1957;0.6845
922;1.7269;-2.5320;0.0000;-0.1947;0.6639
923;2.0383;-2.5320;0.0000;-0.1932;0.6553
924;2.3498;-2.5320;0.0000;-0.1989;0.6713
925;2.6612;-2.5323;0.0000;-0.1864;0.6711
926;2.9719;-2.5327;0.0000;-0.1920;0.6506
927;3.2766;-2.5288;0.0000;-0.2221;0.6412
928;3.5585;-2.4988;0.0000;-0.2126;0.6493
929;-4.3103;-2.8058;0.0000;-0.1606;0.6586
930;-4.0108;-2.8039;0.0000;-0.1711;0.6718
931;-3.7099;-2.8040;0.0000;-0.2171;0.6703
932;-3.4046;-2.8040;0.0000;-0.2051;0.6670
933;-3.0961;-2.8038;0.0000;-0.1901;0.6724
934;-2.7860;-2.8039;0.0000;-0.2170;0.6536
935;-2.4753;-2.8039;0.0000;-0.2550;0.6293
936;-2.1644;-2.8039;0.0000;-0.2470;0.6236
937;-1.8532;-2.8041;0.0000;-0.2055;0.6360
938;-1.5420;-2.8042;0.0000;-0.2227;0.6701
939;-1.2307;-2.8042;0.0000;-0.2138;0.6880
940;-0.9194;-2.8042;0.0000;-0.1893;0.6870
941;-0.6080;-2.8043;0.0000;-0.1979;0.6825
942;-0.2968;-2.8044;0.0000;-0.2019;0.6641
943;0.0146;-2.8043;0.0000;-0.1931;0.6519
944;0.3259;-2.8042;0.0000;-0.1844;0.6643
945;0.6373;-2.8042;0.0000;-0.1863;0.6879
946;0.9487;-2.8040;0.0000;-0.1895;0.7002
947;1.2600;-2.8040;0.0000;-0.1941;0.6990
948;1.5712;-2.8040;0.0000;-0.2075;0.6865
949;1.8826;-2.8039;0.0000;-0.1917;0.6747
950;2.1942;-2.8040;0.0000;-0.1948;0.6750
951;2.5064;-2.8041;0.0000;-0.1958;0.6731
952;2.8207;-2.8044;0.0000;-0.1803;0.6650
953;3.1404;-2.8038;0.0000;-0.2047;0.6537
954;3.4738;-2.7909;0.0000;-0.2119;0.6307
955;-4.4297;-3.0660;0.0000;-0.1696;0.6678
956;-4.1506;-3.0738;0.0000;-0.1594;0.6942
957;-3.8582;-3.0759;0.0000;-0.1899;0.7173
958;-3.5570;-3.0760;0.0000;-0.2111;0.7155
959;-3.2503;-3.0758;0.0000;-0.1886;0.6968
960;-2.9411;-3.0758;0.0000;-0.2061;0.6714
961;-2.6307;-3.0757;0.0000;-0.2323;0.6453
962;-2.3198;-3.0757;0.0000;-0.2438;0.6426
963;-2.0088;-3.0758;0.0000;-0.2162;0.6447
964;-1.6974;-3.0760;0.0000;-0.2033;0.6299
965;-1.3862;-3.0761;0.0000;-0.2239;0.6285
966;-1.0750;-3.0761;0.0000;-0.2111;0.6581
967;-0.7637;-3.0762;0.0000;-0.1982;0.6871
968;-0.4523;-3.0763;0.0000;-0.2017;0.6757
969;-0.1411;-3.0762;0.0000;-0.1994;0.6571
970;0.1702;-3.0762;0.0000;-0.1874;0.6711
971;0.4817;-3.0761;0.0000;-0.1849;0.6860
972;0.7929;-3.0761;0.0000;-0.1968;0.6862
973;1.1043;-3.0760;0.0000;-0.1671;0.6856
974;1.4159;-3.0760;0.0000;-0.1787;0.6863
975;1.7272;-3.0760;0.0000;-0.2143;0.6780
976;2.0385;-3.0759;0.0000;-0.2098;0.6620
977;2.3501;-3.0759;0.0000;-0.2112;0.6545
978;2.6623;-3.0759;0.0000;-0.1836;0.6550
979;2.9757;-3.0757;0.0000;-0.1791;0.6558
980;3.2864;-3.0753;0.0000;-0.2041;0.6445
981;3.5668;-3.0755;0.0000;-0.2081;0.6292
982;-4.3089;-3.3358;0.0000;-0.1828;0.7129
983;-4.0100;-3.3468;0.0000;-0.1742;0.7419
984;-3.7093;-3.3485;0.0000;-0.1917;0.7499
985;-3.4043;-3.3482;0.0000;-0.1867;0.7332
986;-3.0959;-3.3479;0.0000;-0.1790;0.7097
987;-2.7859;-3.3477;0.0000;-0.2055;0.7039
988;-2.4752;-3.3477;0.0000;-0.2276;0.6991
989;-2.1642;-3.3477;0.0000;-0.2326;0.6780
990;-1.8530;-3.3479;0.0000;-0.2164;0.6589
991;-1.5418;-3.3479;0.0000;-0.2191;0.6404
992;-1.2305;-3.3480;0.0000;-0.2047;0.6559
993;-0.9192;-3.3482;0.0000;-0.2120;0.6831
994;-0.6080;-3.3483;0.0000;-0.2117;0.6786
995;-0.2967;-3.3482;0.0000;-0.1968;0.6714
996;0.0147;-3.3482;0.0000;-0.1931;0.6779
997;0.3260;-3.3482;0.0000;-0.1778;0.6999
998;0.6374;-3.3482;0.0000;-0.1890;0.7119
999;0.9487;-3.3480;0.0000;-0.2003;0.6976
1000;1.2601;-3.3480;0.0000;-0.1751;0.6796
1001;1.5715;-3.3480;0.0000;-0.1888;0.6679
1002;1.8828;-3.3478;0.0000;-0.2134;0.6610
1003;2.1944;-3.3477;0.0000;-0.2094;0.6525
1004;2.5066;-3.3476;0.0000;-0.1955;0.6408
1005;2.8208;-3.3471;0.0000;-0.1833;0.6349
1006;3.1403;-3.3473;0.0000;-0.1956;0.6358
1007;3.4730;-3.3602;0.0000;-0.1945;0.6411
1008;-4.4017;-3.5919;0.0000;-0.1879;0.7363
1009;-4.1444;-3.6169;0.0000;-0.1899;0.7342
1010;-3.8570;-3.6212;0.0000;-0.1888;0.7099
1011;-3.5567;-3.6208;0.0000;-0.1882;0.6951
1012;-3.2503;-3.6202;0.0000;-0.1632;0.6968
1013;-2.9410;-3.6200;0.0000;-0.1744;0.7000
1014;-2.6306;-3.6199;0.0000;-0.2056;0.6976
1015;-2.3196;-3.6198;0.0000;-0.2205;0.6830
1016;-2.0086;-3.6197;0.0000;-0.2292;0.6581
1017;-1.6974;-3.6198;0.0000;-0.2293;0.6426
1018;-1.3862;-3.6198;0.0000;-0.2002;0.6502
1019;-1.0747;-3.6201;0.0000;-0.1892;0.6602
1020;-0.7635;-3.6202;0.0000;-0.2318;0.6481
1021;-0.4523;-3.6202;0.0000;-0.2112;0.6494
1022;-0.1409;-3.6201;0.0000;-0.1847;0.6685
1023;0.1704;-3.6202;0.0000;-0.1959;0.6712
1024;0.4818;-3.6203;0.0000;-0.1694;0.6851
1025;0.7932;-3.6202;0.0000;-0.1937;0.7070
1026;1.1044;-3.6200;0.0000;-0.2163;0.6997
1027;1.4157;-3.6199;0.0000;-0.1818;0.6802
1028;1.7272;-3.6198;0.0000;-0.2010;0.6768
1029;2.0385;-3.6198;0.0000;-0.2168;0.6804
1030;2.3499;-3.6195;0.0000;-0.1817;0.6695
1031;2.6615;-3.6192;0.0000;-0.1739;0.6550
1032;2.9719;-3.6189;0.0000;-0.1991;0.6476
1033;3.2756;-3.6231;0.0000;-0.1983;0.6312
1034;3.5537;-3.6535;0.0000;-0.1874;0.6244
1035;-4.3268;-3.8801;0.0000;-0.1870;0.7009
1036;-4.0174;-3.8925;0.0000;-0.1881;0.6735
1037;-3.7120;-3.8933;0.0000;-0.1924;0.6777
1038;-3.4052;-3.8927;0.0000;-0.1744;0.6893
1039;-3.0962;-3.8922;0.0000;-0.1671;0.6897
1040;-2.7860;-3.8920;0.0000;-0.1979;0.6793
1041;-2.4752;-3.8918;0.0000;-0.2081;0.6875
1042;-2.1640;-3.8918;0.0000;-0.2098;0.6945
1043;-1.8529;-3.8917;0.0000;-0.2318;0.6739
1044;-1.5417;-3.8917;0.0000;-0.2277;0.6658
1045;-1.2304;-3.8919;0.0000;-0.1813;0.6506
1046;-0.9190;-3.8921;0.0000;-0.2045;0.6178
1047;-0.6078;-3.8921;0.0000;-0.2275;0.6118
1048;-0.2966;-3.8921;0.0000;-0.1878;0.6317
1049;0.0149;-3.8922;0.0000;-0.1969;0.6450
1050;0.3261;-3.8922;0.0000;-0.1972;0.6545
1051;0.6375;-3.8923;0.0000;-0.1662;0.6750
1052;0.9489;-3.8922;0.0000;-0.1995;0.6934
1053;1.2602;-3.8920;0.0000;-0.2113;0.7018
1054;1.5715;-3.8919;0.0000;-0.2050;0.7019
1055;1.8827;-3.8918;0.0000;-0.2319;0.6900
1056;2.1941;-3.8917;0.0000;-0.1807;0.6774
1057;2.5059;-3.8915;0.0000;-0.1560;0.6824
1058;2.8179;-3.8915;0.0000;-0.1929;0.6747
1059;3.1305;-3.8936;0.0000;-0.1904;0.6531
1060;3.4489;-3.9059;0.0000;-0.1844;0.6401
1061;-4.4128;-4.1561;0.0000;-0.1954;0.6370
1062;-4.1535;-4.1639;0.0000;-0.2011;0.6424
1063;-3.8610;-4.1653;0.0000;-0.1897;0.6518
1064;-3.5582;-4.1653;0.0000;-0.1740;0.6809
1065;-3.2507;-4.1649;0.0000;-0.1576;0.7024
1066;-2.9410;-4.1645;0.0000;-0.1873;0.7002
1067;-2.6306;-4.1644;0.0000;-0.2260;0.6981
1068;-2.3197;-4.1644;0.0000;-0.2110;0.7075
1069;-2.0085;-4.1642;0.0000;-0.2009;0.7125
1070;-1.6972;-4.1641;0.0000;-0.2276;0.7022
1071;-1.3860;-4.1641;0.0000;-0.2152;0.6801
1072;-1.0747;-4.1641;0.0000;-0.1930;0.6494
1073;-0.7634;-4.1641;0.0000;-0.2025;0.6289
1074;-0.4521;-4.1641;0.0000;-0.1986;0.6317
1075;-0.1407;-4.1641;0.0000;-0.1899;0.6441
1076;0.1705;-4.1642;0.0000;-0.2100;0.6545
1077;0.4818;-4.1643;0.0000;-0.1696;0.6550
1078;0.7934;-4.1643;0.0000;-0.1609;0.6698
1079;1.1048;-4.1642;0.0000;-0.2068;0.6988
1080;1.4160;-4.1641;0.0000;-0.2198;0.7022
1081;1.7272;-4.1639;0.0000;-0.2391;0.6826
1082;2.0384;-4.1637;0.0000;-0.2001;0.6663
1083;2.3500;-4.1635;0.0000;-0.1439;0.6889
1084;2.6614;-4.1635;0.0000;-0.1894;0.7105
1085;2.9716;-4.1640;0.0000;-0.2041;0.6955
1086;3.2795;-4.1664;0.0000;-0.1867;0.6885
1087;3.5834;-4.1715;0.0000;-0.1803;0.6665
1088;-4.3288;-4.4436;0.0000;-0.2047;0.6477
1089;-4.0182;-4.4381;0.0000;-0.1932;0.6467
1090;-3.7123;-4.4384;0.0000;-0.1741;0.6516
1091;-3.4051;-4.4384;0.0000;-0.1680;0.6773
1092;-3.0960;-4.4381;0.0000;-0.1732;0.6942
1093;-2.7857;-4.4378;0.0000;-0.2064;0.6915
1094;-2.4749;-4.4376;0.0000;-0.2138;0.6863
1095;-2.1638;-4.4375;0.0000;-0.1922;0.6981
1096;-1.8525;-4.4373;0.0000;-0.2115;0.7145
1097;-1.5413;-4.4371;0.0000;-0.2222;0.7134
1098;-1.2300;-4.4369;0.0000;-0.1992;0.7009
1099;-0.9187;-4.4368;0.0000;-0.1920;0.6904
1100;-0.6073;-4.4367;0.0000;-0.2021;0.6800
1101;-0.2961;-4.4366;0.0000;-0.1987;0.6710
1102;0.0153;-4.4366;0.0000;-0.1916;0.6722
1103;0.3267;-4.4365;0.0000;-0.1725;0.6740
1104;0.6381;-4.4365;0.0000;-0.1553;0.6655
1105;0.9495;-4.4365;0.0000;-0.1856;0.6629
1106;1.2608;-4.4363;0.0000;-0.2113;0.6808
1107;1.5721;-4.4360;0.0000;-0.2250;0.6998
1108;1.8833;-4.4356;0.0000;-0.2251;0.7054
1109;2.1947;-4.4354;0.0000;-0.1692;0.7322
1110;2.5064;-4.4355;0.0000;-0.1670;0.7608
1111;2.8180;-4.4354;0.0000;-0.1960;0.7395
1112;3.1305;-4.4354;0.0000;-0.1998;0.7012
1113;3.4491;-4.4302;0.0000;-0.1937;0.6850
1114;-4.4006;-4.7332;0.0000;-0.2072;0.6471
1115;-4.1424;-4.7146;0.0000;-0.2055;0.6496
1116;-3.8552;-4.7139;0.0000;-0.1737;0.6501
1117;-3.5546;-4.7137;0.0000;-0.1581;0.6500
1118;-3.2480;-4.7133;0.0000;-0.1699;0.6460
1119;-2.9386;-4.7128;0.0000;-0.1979;0.6515
1120;-2.6282;-4.7123;0.0000;-0.2083;0.6669
1121;-2.3172;-4.7120;0.0000;-0.1866;0.6827
1122;-2.0058;-4.7117;0.0000;-0.1914;0.6932
1123;-1.6946;-4.7113;0.0000;-0.2178;0.7029
1124;-1.3834;-4.7110;0.0000;-0.2057;0.7071
1125;-1.0720;-4.7107;0.0000;-0.1948;0.7007
1126;-0.7607;-4.7103;0.0000;-0.2008;0.6980
1127;-0.4494;-4.7099;0.0000;-0.2103;0.6890
1128;-0.1381;-4.7096;0.0000;-0.2004;0.6786
1129;0.1733;-4.7094;0.0000;-0.1784;0.6833
1130;0.4848;-4.7092;0.0000;-0.1450;0.6864
1131;0.7963;-4.7089;0.0000;-0.1591;0.6778
1132;1.1077;-4.7085;0.0000;-0.1874;0.6818
1133;1.4191;-4.7082;0.0000;-0.2034;0.7087
1134;1.7303;-4.7078;0.0000;-0.2212;0.7405
1135;2.0416;-4.7073;0.0000;-0.2073;0.7691
1136;2.3529;-4.7072;0.0000;-0.1861;0.7807
1137;2.6638;-4.7071;0.0000;-0.1772;0.7643
1138;2.9733;-4.7066;0.0000;-0.1762;0.7261
1139;3.2771;-4.7044;0.0000;-0.1956;0.6897
1140;3.5579;-4.6800;0.0000;-0.2080;0.6793
1141;-4.2994;-4.9956;0.0000;-0.2128;0.6501
1142;-4.0004;-4.9943;0.0000;-0.1909;0.6666
1143;-3.6990;-4.9922;0.0000;-0.1513;0.6666
1144;-3.3930;-4.9909;0.0000;-0.1556;0.6456
1145;-3.0843;-4.9899;0.0000;-0.1911;0.6249
1146;-2.7742;-4.9890;0.0000;-0.2075;0.6348
1147;-2.4632;-4.9883;0.0000;-0.1878;0.6400
1148;-2.1520;-4.9877;0.0000;-0.1819;0.6340
1149;-1.8407;-4.9870;0.0000;-0.1976;0.6500
1150;-1.5293;-4.9863;0.0000;-0.1976;0.6680
1151;-1.2178;-4.9856;0.0000;-0.1952;0.6803
1152;-0.9065;-4.9849;0.0000;-0.2070;0.6902
1153;-0.5951;-4.9842;0.0000;-0.2035;0.6941
1154;-0.2837;-4.9835;0.0000;-0.2012;0.6914
1155;0.0277;-4.9829;0.0000;-0.1941;0.6828
1156;0.3391;-4.9823;0.0000;-0.1683;0.6716
1157;0.6506;-4.9817;0.0000;-0.1577;0.6723
1158;0.9621;-4.9810;0.0000;-0.1675;0.6830
1159;1.2736;-4.9804;0.0000;-0.1762;0.6884
1160;1.5850;-4.9797;0.0000;-0.1905;0.6950
1161;1.8965;-4.9790;0.0000;-0.1905;0.7170
1162;2.2080;-4.9784;0.0000;-0.1884;0.7080
1163;2.5197;-4.9778;0.0000;-0.2078;0.6777
1164;2.8322;-4.9766;0.0000;-0.1949;0.6957
1165;3.1480;-4.9733;0.0000;-0.1746;0.7047
1166;3.4776;-4.9626;0.0000;-0.2155;0.6880
1167;-4.4019;-5.2531;0.0000;-0.2080;0.6583
1168;-4.1227;-5.2739;0.0000;-0.1971;0.6692
1169;-3.8263;-5.2720;0.0000;-0.1655;0.6711
1170;-3.5220;-5.2700;0.0000;-0.1427;0.6631
1171;-3.2137;-5.2682;0.0000;-0.1801;0.6662
1172;-2.9037;-5.2667;0.0000;-0.2158;0.6770
1173;-2.5930;-5.2655;0.0000;-0.1988;0.6627
1174;-2.2816;-5.2642;0.0000;-0.1670;0.6247
1175;-1.9700;-5.2631;0.0000;-0.1785;0.6141
1176;-1.6585;-5.2620;0.0000;-0.1986;0.6185
1177;-1.3471;-5.2609;0.0000;-0.1979;0.6318
1178;-1.0355;-5.2598;0.0000;-0.1998;0.6632
1179;-0.7240;-5.2586;0.0000;-0.1992;0.6818
1180;-0.4125;-5.2574;0.0000;-0.1891;0.6893
1181;-0.1009;-5.2562;0.0000;-0.1912;0.6893
1182;0.2107;-5.2551;0.0000;-0.1755;0.6824
1183;0.5223;-5.2540;0.0000;-0.1816;0.6719
1184;0.8338;-5.2529;0.0000;-0.1823;0.6663
1185;1.1454;-5.2517;0.0000;-0.1556;0.6699
1186;1.4571;-5.2506;0.0000;-0.1627;0.6711
1187;1.7687;-5.2494;0.0000;-0.1767;0.6702
1188;2.0803;-5.2482;0.0000;-0.1708;0.6585
1189;2.3918;-5.2470;0.0000;-0.1897;0.6287
1190;2.7025;-5.2457;0.0000;-0.2244;0.6303
1191;3.0101;-5.2436;0.0000;-0.1929;0.6707
1192;3.3071;-5.2382;0.0000;-0.1747;0.7020
1193;3.5664;-5.2342;0.0000;-0.2383;0.7107
