# Units: length:mm angle:deg time:s strain:% 
# Stage: image-000022
stage;index;relative_time;date
"image-000022";23;22.0000;"2022-09-26T12:01:12.387"
# Name : Surface_xy
id;x;y;z;epsilon_x;epsilon_y
0;-4.5099;5.7957;0.0000;-0.2466;0.4693
1;-4.1984;5.7957;0.0000;-0.2422;0.4577
2;-3.8868;5.7960;0.0000;-0.2290;0.5507
3;-3.5751;5.7962;0.0000;-0.2089;0.6043
4;-3.2635;5.7963;0.0000;-0.2509;0.5721
5;-2.9520;5.7965;0.0000;-0.2842;0.5405
6;-2.6406;5.7966;0.0000;-0.2728;0.5360
7;-2.3291;5.7967;0.0000;-0.2639;0.5424
8;-2.0176;5.7968;0.0000;-0.2443;0.5161
9;-1.7060;5.7969;0.0000;-0.2182;0.5117
10;-1.3943;5.7971;0.0000;-0.2190;0.5466
11;-1.0827;5.7972;0.0000;-0.2349;0.5883
12;-0.7712;5.7971;0.0000;-0.2820;0.6031
13;-0.4598;5.7972;0.0000;-0.2693;0.6128
14;-0.1482;5.7973;0.0000;-0.2416;0.5868
15;0.1634;5.7974;0.0000;-0.2529;0.5926
16;0.4750;5.7972;0.0000;-0.2767;0.5954
17;0.7864;5.7970;0.0000;-0.2930;0.5734
18;1.0978;5.7968;0.0000;-0.2989;0.5650
19;1.4091;5.7967;0.0000;-0.3236;0.5624
20;1.7204;5.7964;0.0000;-0.3022;0.5039
21;2.0318;5.7964;0.0000;-0.2789;0.4966
22;2.3432;5.7964;0.0000;-0.2632;0.5346
23;2.6548;5.7962;0.0000;-0.2580;0.5172
24;2.9662;5.7962;0.0000;-0.2819;0.5137
25;3.2777;5.7962;0.0000;-0.2872;0.5151
26;3.5891;5.7962;0.0000;-0.2931;0.4914
27;3.8374;5.6867;0.0000;-0.2833;0.5060
28;3.8361;5.3727;0.0000;-0.2977;0.5164
29;3.8347;5.0588;0.0000;-0.2726;0.5006
30;3.8334;4.7449;0.0000;-0.2875;0.5536
31;3.8321;4.4308;0.0000;-0.3261;0.5909
32;3.8310;4.1166;0.0000;-0.3349;0.5738
33;3.8298;3.8026;0.0000;-0.3293;0.5891
34;3.8287;3.4883;0.0000;-0.2929;0.6119
35;3.8278;3.1741;0.0000;-0.2648;0.5845
36;3.8268;2.8600;0.0000;-0.2863;0.5560
37;3.8258;2.5460;0.0000;-0.3192;0.5590
38;3.8248;2.2319;0.0000;-0.3519;0.6125
39;3.8239;1.9175;0.0000;-0.3712;0.6823
40;3.8231;1.6031;0.0000;-0.3366;0.6349
41;3.8223;1.2889;0.0000;-0.3014;0.5585
42;3.8215;0.9750;0.0000;-0.3483;0.5188
43;3.8207;0.6611;0.0000;-0.3681;0.4705
44;3.8200;0.3474;0.0000;-0.3186;0.4984
45;3.8192;0.0333;0.0000;-0.3066;0.5782
46;3.8182;-0.2809;0.0000;-0.3189;0.5841
47;3.8174;-0.5949;0.0000;-0.2936;0.5825
48;3.8165;-0.9090;0.0000;-0.3476;0.5968
49;3.8156;-1.2233;0.0000;-0.3725;0.6462
50;3.8146;-1.5377;0.0000;-0.3990;0.6255
51;3.8138;-1.8520;0.0000;-0.3588;0.6088
52;3.8130;-2.1661;0.0000;-0.3002;0.5459
53;3.8121;-2.4799;0.0000;-0.2953;0.4485
54;3.8113;-2.7936;0.0000;-0.2955;0.4076
55;3.8105;-3.1071;0.0000;-0.2704;0.4161
56;3.8096;-3.4208;0.0000;-0.2629;0.4387
57;3.8088;-3.7345;0.0000;-0.2328;0.4378
58;3.8078;-4.0482;0.0000;-0.2569;0.4491
59;3.8070;-4.3619;0.0000;-0.2686;0.4886
60;3.8061;-4.6758;0.0000;-0.3119;0.5005
61;3.8052;-4.9897;0.0000;-0.3312;0.5082
62;3.8046;-5.3035;0.0000;-0.3163;0.4891
63;3.5399;-5.3763;0.0000;-0.3075;0.4787
64;3.2285;-5.3783;0.0000;-0.2707;0.4992
65;2.9170;-5.3802;0.0000;-0.2562;0.4933
66;2.6054;-5.3819;0.0000;-0.2614;0.4759
67;2.2939;-5.3838;0.0000;-0.2671;0.4820
68;1.9825;-5.3856;0.0000;-0.2745;0.4820
69;1.6710;-5.3873;0.0000;-0.2194;0.4461
70;1.3593;-5.3891;0.0000;-0.2003;0.4680
71;1.0476;-5.3907;0.0000;-0.2460;0.4464
72;0.7362;-5.3924;0.0000;-0.2620;0.4579
73;0.4246;-5.3942;0.0000;-0.2520;0.5312
74;0.1131;-5.3960;0.0000;-0.2541;0.5399
75;-0.1984;-5.3976;0.0000;-0.2670;0.5057
76;-0.5099;-5.3993;0.0000;-0.2508;0.4745
77;-0.8214;-5.4009;0.0000;-0.2473;0.4444
78;-1.1330;-5.4026;0.0000;-0.2511;0.4401
79;-1.4445;-5.4042;0.0000;-0.2652;0.4518
80;-1.7560;-5.4057;0.0000;-0.2378;0.4532
81;-2.0676;-5.4074;0.0000;-0.2049;0.4651
82;-2.3793;-5.4091;0.0000;-0.2260;0.4717
83;-2.6908;-5.4108;0.0000;-0.2520;0.5119
84;-3.0024;-5.4124;0.0000;-0.2163;0.4906
85;-3.3141;-5.4140;0.0000;-0.2043;0.4960
86;-3.6258;-5.4156;0.0000;-0.1889;0.4984
87;-3.9375;-5.4171;0.0000;-0.1912;0.4826
88;-4.2492;-5.4186;0.0000;-0.2191;0.4751
89;-4.5596;-5.3964;0.0000;-0.2473;0.4593
90;-4.6096;-5.1280;0.0000;-0.2731;0.4449
91;-4.6097;-4.8143;0.0000;-0.2269;0.4538
92;-4.6098;-4.5005;0.0000;-0.2144;0.4305
93;-4.6097;-4.1869;0.0000;-0.2283;0.4504
94;-4.6099;-3.8731;0.0000;-0.2451;0.5465
95;-4.6102;-3.5589;0.0000;-0.2437;0.6055
96;-4.6103;-3.2448;0.0000;-0.2607;0.5675
97;-4.6105;-2.9308;0.0000;-0.2484;0.5195
98;-4.6108;-2.6169;0.0000;-0.2423;0.4772
99;-4.6110;-2.3030;0.0000;-0.3051;0.5862
100;-4.6112;-1.9886;0.0000;-0.3109;0.6531
101;-4.6114;-1.6744;0.0000;-0.2853;0.6197
102;-4.6115;-1.3601;0.0000;-0.2946;0.6342
103;-4.6117;-1.0457;0.0000;-0.3520;0.5786
104;-4.6119;-0.7318;0.0000;-0.3271;0.4494
105;-4.6122;-0.4183;0.0000;-0.2924;0.4284
106;-4.6123;-0.1046;0.0000;-0.3039;0.5270
107;-4.6124;0.2096;0.0000;-0.3495;0.5865
108;-4.6126;0.5237;0.0000;-0.3368;0.5454
109;-4.6128;0.8377;0.0000;-0.3228;0.5829
110;-4.6128;1.1520;0.0000;-0.3292;0.6364
111;-4.6129;1.4663;0.0000;-0.3456;0.6335
112;-4.6131;1.7806;0.0000;-0.3356;0.6524
113;-4.6132;2.0951;0.0000;-0.3380;0.6781
114;-4.6132;2.4094;0.0000;-0.3289;0.5860
115;-4.6132;2.7233;0.0000;-0.3142;0.5596
116;-4.6131;3.0377;0.0000;-0.3279;0.7123
117;-4.6133;3.3524;0.0000;-0.3472;0.7639
118;-4.6138;3.6669;0.0000;-0.3001;0.7027
119;-4.6141;3.9814;0.0000;-0.3473;0.6875
120;-4.6144;4.2958;0.0000;-0.3637;0.6256
121;-4.6150;4.6099;0.0000;-0.3271;0.6052
122;-4.6157;4.9242;0.0000;-0.2944;0.6734
123;-4.6161;5.2388;0.0000;-0.3290;0.6367
124;-4.6167;5.5528;0.0000;-0.2650;0.5445
125;-4.3189;5.5181;0.0000;-0.2519;0.5214
126;-4.0171;5.5140;0.0000;-0.2462;0.5427
127;-3.7119;5.5113;0.0000;-0.2230;0.5991
128;-3.4035;5.5104;0.0000;-0.2298;0.6201
129;-3.0935;5.5102;0.0000;-0.2701;0.5999
130;-2.7828;5.5102;0.0000;-0.2767;0.5689
131;-2.4717;5.5102;0.0000;-0.2607;0.5512
132;-2.1605;5.5102;0.0000;-0.2557;0.5390
133;-1.8491;5.5104;0.0000;-0.2481;0.5326
134;-1.5377;5.5103;0.0000;-0.2339;0.5568
135;-1.2264;5.5102;0.0000;-0.2359;0.5984
136;-0.9150;5.5101;0.0000;-0.2638;0.6210
137;-0.6038;5.5099;0.0000;-0.2790;0.6353
138;-0.2925;5.5101;0.0000;-0.2648;0.6369
139;0.0188;5.5101;0.0000;-0.2809;0.6287
140;0.3300;5.5100;0.0000;-0.2924;0.6181
141;0.6412;5.5097;0.0000;-0.3020;0.5803
142;0.9523;5.5095;0.0000;-0.2941;0.5439
143;1.2635;5.5092;0.0000;-0.3012;0.5454
144;1.5747;5.5090;0.0000;-0.2943;0.5337
145;1.8859;5.5089;0.0000;-0.2748;0.4942
146;2.1971;5.5088;0.0000;-0.2688;0.4951
147;2.5074;5.5087;0.0000;-0.2546;0.5114
148;2.8147;5.5090;0.0000;-0.2811;0.5108
149;3.1135;5.5100;0.0000;-0.2945;0.5146
150;3.3935;5.5123;0.0000;-0.2886;0.5114
151;3.6351;5.5042;0.0000;-0.2940;0.5059
152;-4.4152;5.2346;0.0000;-0.2829;0.6418
153;-4.1419;5.2330;0.0000;-0.2613;0.6310
154;-3.8499;5.2283;0.0000;-0.2429;0.6205
155;-3.5475;5.2266;0.0000;-0.2335;0.6286
156;-3.2400;5.2262;0.0000;-0.2505;0.6381
157;-2.9304;5.2262;0.0000;-0.2584;0.6416
158;-2.6198;5.2263;0.0000;-0.2534;0.6219
159;-2.3087;5.2263;0.0000;-0.2428;0.6045
160;-1.9975;5.2263;0.0000;-0.2785;0.6229
161;-1.6865;5.2263;0.0000;-0.2833;0.6380
162;-1.3753;5.2260;0.0000;-0.2595;0.6511
163;-1.0641;5.2257;0.0000;-0.2539;0.6510
164;-0.7530;5.2255;0.0000;-0.2711;0.6309
165;-0.4417;5.2254;0.0000;-0.2762;0.6471
166;-0.1306;5.2255;0.0000;-0.3068;0.6711
167;0.1803;5.2253;0.0000;-0.3443;0.6503
168;0.4912;5.2252;0.0000;-0.3229;0.6045
169;0.8022;5.2251;0.0000;-0.2979;0.5705
170;1.1134;5.2249;0.0000;-0.2757;0.5559
171;1.4245;5.2245;0.0000;-0.2767;0.5421
172;1.7356;5.2244;0.0000;-0.2830;0.5189
173;2.0467;5.2243;0.0000;-0.2766;0.4984
174;2.3573;5.2240;0.0000;-0.2604;0.4836
175;2.6665;5.2238;0.0000;-0.2693;0.4787
176;2.9710;5.2240;0.0000;-0.3049;0.4867
177;3.2678;5.2243;0.0000;-0.2894;0.4891
178;3.5591;5.2258;0.0000;-0.2793;0.4948
179;-4.2963;4.9587;0.0000;-0.2894;0.6828
180;-3.9976;4.9488;0.0000;-0.2703;0.6652
181;-3.6964;4.9460;0.0000;-0.2582;0.6255
182;-3.3907;4.9455;0.0000;-0.2550;0.5996
183;-3.0821;4.9455;0.0000;-0.2365;0.6106
184;-2.7719;4.9454;0.0000;-0.2362;0.6522
185;-2.4612;4.9456;0.0000;-0.2438;0.6924
186;-2.1501;4.9455;0.0000;-0.2752;0.7317
187;-1.8392;4.9453;0.0000;-0.3227;0.7500
188;-1.5283;4.9452;0.0000;-0.2992;0.7167
189;-1.2172;4.9449;0.0000;-0.2563;0.6625
190;-0.9060;4.9448;0.0000;-0.2683;0.6201
191;-0.5949;4.9446;0.0000;-0.3008;0.5955
192;-0.2839;4.9444;0.0000;-0.3103;0.6192
193;0.0271;4.9443;0.0000;-0.3297;0.6438
194;0.3379;4.9443;0.0000;-0.3482;0.6125
195;0.6488;4.9441;0.0000;-0.3113;0.5936
196;0.9599;4.9440;0.0000;-0.2739;0.6051
197;1.2710;4.9437;0.0000;-0.2604;0.5897
198;1.5822;4.9435;0.0000;-0.2840;0.5601
199;1.8932;4.9434;0.0000;-0.2869;0.5443
200;2.2040;4.9432;0.0000;-0.2678;0.5083
201;2.5138;4.9430;0.0000;-0.2797;0.4787
202;2.8197;4.9427;0.0000;-0.3024;0.4932
203;3.1158;4.9426;0.0000;-0.3034;0.4982
204;3.3930;4.9401;0.0000;-0.2880;0.4969
205;3.6318;4.9406;0.0000;-0.2755;0.5104
206;-4.3890;4.6988;0.0000;-0.3050;0.6252
207;-4.1303;4.6727;0.0000;-0.2985;0.6438
208;-3.8424;4.6680;0.0000;-0.2859;0.6383
209;-3.5419;4.6677;0.0000;-0.2845;0.6049
210;-3.2354;4.6680;0.0000;-0.2567;0.6058
211;-2.9261;4.6680;0.0000;-0.2276;0.6331
212;-2.6156;4.6679;0.0000;-0.2479;0.6789
213;-2.3047;4.6676;0.0000;-0.2598;0.7156
214;-1.9937;4.6674;0.0000;-0.2940;0.7233
215;-1.6828;4.6673;0.0000;-0.3232;0.7317
216;-1.3719;4.6673;0.0000;-0.2984;0.7056
217;-1.0608;4.6672;0.0000;-0.2780;0.6597
218;-0.7498;4.6672;0.0000;-0.3223;0.6406
219;-0.4389;4.6670;0.0000;-0.3303;0.6246
220;-0.1280;4.6667;0.0000;-0.2936;0.6226
221;0.1831;4.6666;0.0000;-0.3098;0.6356
222;0.4940;4.6666;0.0000;-0.3209;0.6282
223;0.8050;4.6664;0.0000;-0.3019;0.6125
224;1.1161;4.6661;0.0000;-0.2788;0.6129
225;1.4272;4.6658;0.0000;-0.2779;0.6075
226;1.7382;4.6657;0.0000;-0.2957;0.5888
227;2.0491;4.6657;0.0000;-0.2705;0.5618
228;2.3596;4.6656;0.0000;-0.2813;0.5429
229;2.6678;4.6652;0.0000;-0.3095;0.5405
230;2.9708;4.6649;0.0000;-0.2962;0.5431
231;3.2656;4.6646;0.0000;-0.2915;0.5575
232;3.5572;4.6529;0.0000;-0.3019;0.5728
233;-4.3135;4.4070;0.0000;-0.3238;0.6170
234;-4.0028;4.3937;0.0000;-0.3048;0.6206
235;-3.6968;4.3923;0.0000;-0.3024;0.6210
236;-3.3898;4.3926;0.0000;-0.2966;0.6264
237;-3.0810;4.3928;0.0000;-0.2674;0.6322
238;-2.7708;4.3927;0.0000;-0.2642;0.6370
239;-2.4601;4.3925;0.0000;-0.2692;0.6371
240;-2.1492;4.3923;0.0000;-0.2623;0.6318
241;-1.8381;4.3921;0.0000;-0.2993;0.6534
242;-1.5272;4.3918;0.0000;-0.3355;0.7016
243;-1.2163;4.3919;0.0000;-0.2989;0.7130
244;-0.9053;4.3919;0.0000;-0.3110;0.6940
245;-0.5944;4.3917;0.0000;-0.3285;0.6767
246;-0.2835;4.3916;0.0000;-0.2993;0.6537
247;0.0276;4.3914;0.0000;-0.2751;0.6361
248;0.3387;4.3912;0.0000;-0.3059;0.6516
249;0.6497;4.3912;0.0000;-0.3208;0.6596
250;0.9606;4.3910;0.0000;-0.3181;0.6315
251;1.2715;4.3906;0.0000;-0.2930;0.6161
252;1.5826;4.3905;0.0000;-0.2841;0.6006
253;1.8936;4.3905;0.0000;-0.2857;0.5824
254;2.2043;4.3904;0.0000;-0.2746;0.5880
255;2.5136;4.3901;0.0000;-0.2986;0.5879
256;2.8180;4.3896;0.0000;-0.2934;0.5709
257;3.1108;4.3897;0.0000;-0.2747;0.5693
258;3.3819;4.3896;0.0000;-0.2919;0.5810
259;3.6210;4.3594;0.0000;-0.3299;0.5859
260;-4.3981;4.1227;0.0000;-0.3358;0.6700
261;-4.1388;4.1217;0.0000;-0.2998;0.6516
262;-3.8458;4.1193;0.0000;-0.3001;0.6447
263;-3.5426;4.1190;0.0000;-0.3076;0.6616
264;-3.2353;4.1192;0.0000;-0.3090;0.6733
265;-2.9259;4.1192;0.0000;-0.3046;0.6714
266;-2.6156;4.1191;0.0000;-0.3030;0.6486
267;-2.3048;4.1189;0.0000;-0.2789;0.6372
268;-1.9938;4.1186;0.0000;-0.2796;0.6521
269;-1.6828;4.1182;0.0000;-0.3272;0.6567
270;-1.3720;4.1180;0.0000;-0.3254;0.6661
271;-1.0610;4.1180;0.0000;-0.2985;0.6937
272;-0.7500;4.1180;0.0000;-0.3032;0.6925
273;-0.4390;4.1179;0.0000;-0.2934;0.6723
274;-0.1280;4.1177;0.0000;-0.2814;0.6643
275;0.1831;4.1176;0.0000;-0.2976;0.6663
276;0.4941;4.1174;0.0000;-0.3265;0.6703
277;0.8049;4.1173;0.0000;-0.3249;0.6600
278;1.1159;4.1171;0.0000;-0.3135;0.6246
279;1.4269;4.1168;0.0000;-0.2973;0.5873
280;1.7379;4.1169;0.0000;-0.2860;0.5717
281;2.0488;4.1169;0.0000;-0.2777;0.5782
282;2.3590;4.1166;0.0000;-0.2749;0.5996
283;2.6663;4.1158;0.0000;-0.2914;0.6128
284;2.9660;4.1149;0.0000;-0.2781;0.6018
285;3.2522;4.1148;0.0000;-0.2650;0.5859
286;3.5262;4.1165;0.0000;-0.3110;0.5784
287;-4.3158;3.8427;0.0000;-0.3089;0.6984
288;-4.0039;3.8474;0.0000;-0.2921;0.6976
289;-3.6972;3.8466;0.0000;-0.3095;0.7017
290;-3.3897;3.8463;0.0000;-0.3178;0.7350
291;-3.0808;3.8462;0.0000;-0.3280;0.7593
292;-2.7708;3.8462;0.0000;-0.3394;0.7409
293;-2.4604;3.8461;0.0000;-0.3225;0.7039
294;-2.1495;3.8459;0.0000;-0.2907;0.6876
295;-1.8386;3.8456;0.0000;-0.3057;0.6835
296;-1.5277;3.8453;0.0000;-0.3313;0.6508
297;-1.2167;3.8452;0.0000;-0.3067;0.6448
298;-0.9057;3.8450;0.0000;-0.2822;0.6815
299;-0.5946;3.8450;0.0000;-0.2809;0.7064
300;-0.2835;3.8449;0.0000;-0.2929;0.7097
301;0.0274;3.8447;0.0000;-0.2974;0.7093
302;0.3384;3.8445;0.0000;-0.3204;0.6971
303;0.6493;3.8445;0.0000;-0.3221;0.6767
304;0.9603;3.8444;0.0000;-0.3057;0.6585
305;1.2713;3.8443;0.0000;-0.3112;0.6168
306;1.5822;3.8443;0.0000;-0.3053;0.5987
307;1.8932;3.8443;0.0000;-0.2796;0.6216
308;2.2039;3.8440;0.0000;-0.2748;0.6429
309;2.5130;3.8432;0.0000;-0.2827;0.6485
310;2.8170;3.8418;0.0000;-0.2894;0.6263
311;3.1089;3.8402;0.0000;-0.2783;0.6052
312;3.3793;3.8425;0.0000;-0.2793;0.6018
313;3.6193;3.8770;0.0000;-0.3344;0.5889
314;-4.3898;3.5571;0.0000;-0.3141;0.7358
315;-4.1310;3.5739;0.0000;-0.3029;0.7564
316;-3.8424;3.5746;0.0000;-0.3154;0.7584
317;-3.5413;3.5740;0.0000;-0.3293;0.7596
318;-3.2347;3.5736;0.0000;-0.3291;0.7690
319;-2.9257;3.5736;0.0000;-0.3291;0.7667
320;-2.6156;3.5736;0.0000;-0.3507;0.7627
321;-2.3050;3.5736;0.0000;-0.3251;0.7578
322;-1.9941;3.5733;0.0000;-0.3080;0.7313
323;-1.6832;3.5730;0.0000;-0.3291;0.6905
324;-1.3723;3.5730;0.0000;-0.3241;0.6687
325;-1.0614;3.5728;0.0000;-0.2839;0.6611
326;-0.7502;3.5726;0.0000;-0.2764;0.6775
327;-0.4392;3.5724;0.0000;-0.2937;0.7136
328;-0.1282;3.5722;0.0000;-0.2938;0.7199
329;0.1828;3.5721;0.0000;-0.3001;0.7001
330;0.4937;3.5721;0.0000;-0.3258;0.6950
331;0.8047;3.5720;0.0000;-0.3105;0.7061
332;1.1157;3.5720;0.0000;-0.2922;0.6924
333;1.4268;3.5720;0.0000;-0.3115;0.6776
334;1.7376;3.5719;0.0000;-0.3031;0.6970
335;2.0486;3.5717;0.0000;-0.2874;0.7247
336;2.3587;3.5712;0.0000;-0.2943;0.7241
337;2.6667;3.5701;0.0000;-0.2921;0.6839
338;2.9692;3.5684;0.0000;-0.2926;0.6493
339;3.2631;3.5687;0.0000;-0.2880;0.6337
340;3.5536;3.5867;0.0000;-0.2953;0.6160
341;-4.2950;3.2964;0.0000;-0.3249;0.7973
342;-3.9949;3.3008;0.0000;-0.3246;0.8065
343;-3.6939;3.3013;0.0000;-0.3448;0.7893
344;-3.3887;3.3013;0.0000;-0.3474;0.7599
345;-3.0806;3.3012;0.0000;-0.3228;0.7576
346;-2.7707;3.3012;0.0000;-0.3195;0.7806
347;-2.4603;3.3011;0.0000;-0.3431;0.8066
348;-2.1496;3.3009;0.0000;-0.3341;0.8007
349;-1.8388;3.3008;0.0000;-0.3345;0.7587
350;-1.5280;3.3008;0.0000;-0.3300;0.7309
351;-1.2171;3.3007;0.0000;-0.3037;0.7162
352;-0.9060;3.3006;0.0000;-0.2774;0.7026
353;-0.5949;3.3003;0.0000;-0.2819;0.6990
354;-0.2838;3.3001;0.0000;-0.2837;0.6943
355;0.0272;3.3000;0.0000;-0.2792;0.6902
356;0.3383;3.2999;0.0000;-0.3038;0.6984
357;0.6492;3.2998;0.0000;-0.3212;0.7045
358;0.9601;3.2996;0.0000;-0.3086;0.7079
359;1.2711;3.2997;0.0000;-0.2925;0.7246
360;1.5822;3.2996;0.0000;-0.3231;0.7502
361;1.8930;3.2995;0.0000;-0.3135;0.7630
362;2.2036;3.2991;0.0000;-0.3025;0.7466
363;2.5130;3.2984;0.0000;-0.3036;0.7187
364;2.8185;3.2973;0.0000;-0.2923;0.6923
365;3.1148;3.2963;0.0000;-0.2830;0.6561
366;3.3926;3.3009;0.0000;-0.2699;0.6188
367;3.6309;3.3058;0.0000;-0.2701;0.6046
368;-4.4159;3.0339;0.0000;-0.3172;0.7135
369;-4.1354;3.0295;0.0000;-0.3245;0.7304
370;-3.8426;3.0286;0.0000;-0.3385;0.7516
371;-3.5412;3.0288;0.0000;-0.3457;0.7467
372;-3.2348;3.0289;0.0000;-0.3478;0.7289
373;-2.9259;3.0288;0.0000;-0.3220;0.7492
374;-2.6158;3.0287;0.0000;-0.3147;0.7832
375;-2.3051;3.0285;0.0000;-0.3320;0.7834
376;-1.9944;3.0285;0.0000;-0.3374;0.7752
377;-1.6835;3.0284;0.0000;-0.3216;0.7797
378;-1.3725;3.0285;0.0000;-0.3101;0.7789
379;-1.0616;3.0284;0.0000;-0.3069;0.7588
380;-0.7506;3.0282;0.0000;-0.2889;0.7260
381;-0.4395;3.0281;0.0000;-0.2799;0.6940
382;-0.1284;3.0279;0.0000;-0.2738;0.6765
383;0.1827;3.0278;0.0000;-0.2715;0.6818
384;0.4937;3.0277;0.0000;-0.2943;0.6863
385;0.8047;3.0276;0.0000;-0.3144;0.6648
386;1.1157;3.0275;0.0000;-0.3076;0.6655
387;1.4267;3.0274;0.0000;-0.3193;0.7044
388;1.7375;3.0272;0.0000;-0.3422;0.7275
389;2.0483;3.0270;0.0000;-0.3048;0.7096
390;2.3586;3.0267;0.0000;-0.2917;0.6591
391;2.6670;3.0260;0.0000;-0.2971;0.6167
392;2.9709;3.0254;0.0000;-0.2775;0.5941
393;3.2678;3.0257;0.0000;-0.2684;0.5755
394;3.5587;3.0274;0.0000;-0.2768;0.5714
395;-4.2948;2.7667;0.0000;-0.3130;0.5605
396;-3.9948;2.7575;0.0000;-0.3109;0.5898
397;-3.6938;2.7564;0.0000;-0.3375;0.6427
398;-3.3888;2.7567;0.0000;-0.3477;0.6708
399;-3.0808;2.7568;0.0000;-0.3314;0.6788
400;-2.7711;2.7565;0.0000;-0.3004;0.6917
401;-2.4605;2.7564;0.0000;-0.3106;0.6948
402;-2.1498;2.7563;0.0000;-0.3357;0.6781
403;-1.8390;2.7562;0.0000;-0.3220;0.6787
404;-1.5280;2.7562;0.0000;-0.3013;0.6931
405;-1.2171;2.7561;0.0000;-0.3197;0.6792
406;-0.9062;2.7561;0.0000;-0.3104;0.6449
407;-0.5951;2.7561;0.0000;-0.2871;0.6251
408;-0.2841;2.7560;0.0000;-0.2818;0.6215
409;0.0270;2.7559;0.0000;-0.2621;0.6268
410;0.3382;2.7557;0.0000;-0.2629;0.6406
411;0.6492;2.7556;0.0000;-0.3024;0.6546
412;0.9601;2.7557;0.0000;-0.3314;0.6533
413;1.2710;2.7556;0.0000;-0.3237;0.6344
414;1.5819;2.7553;0.0000;-0.3373;0.6208
415;1.8928;2.7551;0.0000;-0.3106;0.6065
416;2.2035;2.7550;0.0000;-0.2661;0.5733
417;2.5130;2.7548;0.0000;-0.2778;0.5326
418;2.8185;2.7545;0.0000;-0.2857;0.5101
419;3.1141;2.7546;0.0000;-0.2760;0.5130
420;3.3904;2.7512;0.0000;-0.2838;0.5353
421;3.6264;2.7463;0.0000;-0.3021;0.5484
422;-4.3889;2.5103;0.0000;-0.3203;0.5190
423;-4.1304;2.4875;0.0000;-0.3054;0.5256
424;-3.8419;2.4842;0.0000;-0.3167;0.5474
425;-3.5414;2.4844;0.0000;-0.3409;0.5985
426;-3.2352;2.4847;0.0000;-0.3337;0.6249
427;-2.9262;2.4847;0.0000;-0.3046;0.6036
428;-2.6160;2.4845;0.0000;-0.2903;0.5769
429;-2.3053;2.4845;0.0000;-0.3129;0.5627
430;-1.9945;2.4845;0.0000;-0.3215;0.5571
431;-1.6836;2.4844;0.0000;-0.2970;0.5632
432;-1.3725;2.4844;0.0000;-0.2839;0.5619
433;-1.0615;2.4845;0.0000;-0.3036;0.5583
434;-0.7506;2.4845;0.0000;-0.3097;0.5663
435;-0.4396;2.4844;0.0000;-0.3042;0.5760
436;-0.1286;2.4842;0.0000;-0.2845;0.5995
437;0.1826;2.4840;0.0000;-0.2586;0.6335
438;0.4937;2.4838;0.0000;-0.2831;0.6482
439;0.8047;2.4837;0.0000;-0.3202;0.6496
440;1.1156;2.4837;0.0000;-0.3236;0.6375
441;1.4265;2.4837;0.0000;-0.3180;0.5933
442;1.7374;2.4835;0.0000;-0.3209;0.5437
443;2.0482;2.4835;0.0000;-0.2747;0.5166
444;2.3586;2.4835;0.0000;-0.2562;0.5008
445;2.6666;2.4833;0.0000;-0.2750;0.4988
446;2.9686;2.4833;0.0000;-0.2877;0.5129
447;3.2612;2.4826;0.0000;-0.3037;0.5236
448;3.5504;2.4662;0.0000;-0.3206;0.5496
449;-4.3141;2.2237;0.0000;-0.3301;0.6315
450;-4.0032;2.2134;0.0000;-0.3116;0.5915
451;-3.6971;2.2126;0.0000;-0.3108;0.5824
452;-3.3901;2.2128;0.0000;-0.3188;0.5882
453;-3.0814;2.2130;0.0000;-0.3217;0.5732
454;-2.7715;2.2130;0.0000;-0.2976;0.5552
455;-2.4609;2.2130;0.0000;-0.2878;0.5528
456;-2.1501;2.2130;0.0000;-0.3034;0.5714
457;-1.8391;2.2129;0.0000;-0.2999;0.5882
458;-1.5281;2.2128;0.0000;-0.2779;0.6036
459;-1.2170;2.2127;0.0000;-0.2684;0.6259
460;-0.9059;2.2128;0.0000;-0.2904;0.6504
461;-0.5949;2.2127;0.0000;-0.3239;0.6715
462;-0.2840;2.2125;0.0000;-0.3214;0.6794
463;0.0269;2.2123;0.0000;-0.2867;0.6782
464;0.3380;2.2119;0.0000;-0.2711;0.6680
465;0.6491;2.2118;0.0000;-0.2984;0.6474
466;0.9600;2.2119;0.0000;-0.3157;0.6309
467;1.2710;2.2119;0.0000;-0.2921;0.6183
468;1.5821;2.2120;0.0000;-0.2938;0.5912
469;1.8930;2.2119;0.0000;-0.2928;0.5626
470;2.2036;2.2119;0.0000;-0.2568;0.5685
471;2.5128;2.2118;0.0000;-0.2648;0.5972
472;2.8168;2.2115;0.0000;-0.2910;0.6114
473;3.1082;2.2113;0.0000;-0.3126;0.6276
474;3.3772;2.2109;0.0000;-0.3302;0.6405
475;3.6161;2.1746;0.0000;-0.3437;0.6377
476;-4.3984;1.9465;0.0000;-0.3393;0.6775
477;-4.1389;1.9420;0.0000;-0.3356;0.6578
478;-3.8461;1.9415;0.0000;-0.3141;0.6372
479;-3.5432;1.9413;0.0000;-0.2937;0.6143
480;-3.2359;1.9414;0.0000;-0.3045;0.6038
481;-2.9266;1.9414;0.0000;-0.3065;0.6182
482;-2.6163;1.9413;0.0000;-0.2900;0.6493
483;-2.3055;1.9412;0.0000;-0.2935;0.6764
484;-1.9947;1.9411;0.0000;-0.2957;0.6895
485;-1.6837;1.9409;0.0000;-0.2874;0.7035
486;-1.3726;1.9407;0.0000;-0.2849;0.7141
487;-1.0616;1.9407;0.0000;-0.2796;0.7380
488;-0.7505;1.9406;0.0000;-0.2903;0.7560
489;-0.4395;1.9404;0.0000;-0.3180;0.7562
490;-0.1286;1.9403;0.0000;-0.3192;0.7299
491;0.1823;1.9401;0.0000;-0.2900;0.6665
492;0.4934;1.9399;0.0000;-0.2732;0.6207
493;0.8045;1.9400;0.0000;-0.2872;0.6171
494;1.1155;1.9400;0.0000;-0.2921;0.6359
495;1.4266;1.9401;0.0000;-0.2582;0.6462
496;1.7377;1.9401;0.0000;-0.2634;0.6572
497;2.0487;1.9402;0.0000;-0.2690;0.6785
498;2.3588;1.9399;0.0000;-0.2791;0.7092
499;2.6660;1.9393;0.0000;-0.3095;0.7400
500;2.9653;1.9382;0.0000;-0.3133;0.7342
501;3.2503;1.9376;0.0000;-0.3172;0.7214
502;3.5204;1.9414;0.0000;-0.3418;0.7124
503;-4.3144;1.6615;0.0000;-0.3353;0.6449
504;-4.0035;1.6698;0.0000;-0.3248;0.6593
505;-3.6974;1.6699;0.0000;-0.3100;0.6578
506;-3.3904;1.6697;0.0000;-0.3081;0.6481
507;-3.0817;1.6696;0.0000;-0.3059;0.6474
508;-2.7717;1.6694;0.0000;-0.2978;0.6607
509;-2.4611;1.6691;0.0000;-0.2993;0.6902
510;-2.1503;1.6690;0.0000;-0.2886;0.7125
511;-1.8393;1.6688;0.0000;-0.2744;0.7077
512;-1.5282;1.6686;0.0000;-0.2937;0.7029
513;-1.2173;1.6686;0.0000;-0.3180;0.7209
514;-0.9064;1.6684;0.0000;-0.2885;0.7361
515;-0.5952;1.6683;0.0000;-0.2667;0.7296
516;-0.2841;1.6682;0.0000;-0.2899;0.7001
517;0.0268;1.6682;0.0000;-0.2984;0.6464
518;0.3379;1.6682;0.0000;-0.2778;0.5957
519;0.6490;1.6682;0.0000;-0.2711;0.5864
520;0.9601;1.6682;0.0000;-0.2802;0.6098
521;1.2711;1.6681;0.0000;-0.2563;0.6357
522;1.5823;1.6682;0.0000;-0.2434;0.6529
523;1.8934;1.6680;0.0000;-0.2711;0.6871
524;2.2040;1.6679;0.0000;-0.2888;0.7253
525;2.5130;1.6673;0.0000;-0.3136;0.7370
526;2.8171;1.6659;0.0000;-0.3209;0.7390
527;3.1095;1.6643;0.0000;-0.3040;0.7234
528;3.3817;1.6664;0.0000;-0.3145;0.6884
529;3.6231;1.7152;0.0000;-0.3415;0.6713
530;-4.3880;1.3715;0.0000;-0.3284;0.6537
531;-4.1305;1.3952;0.0000;-0.3275;0.6599
532;-3.8426;1.3980;0.0000;-0.3215;0.6460
533;-3.5420;1.3979;0.0000;-0.3215;0.6364
534;-3.2358;1.3978;0.0000;-0.3150;0.6326
535;-2.9268;1.3977;0.0000;-0.3015;0.6288
536;-2.6166;1.3974;0.0000;-0.3156;0.6349
537;-2.3060;1.3971;0.0000;-0.2941;0.6543
538;-1.9950;1.3969;0.0000;-0.2645;0.6686
539;-1.6839;1.3968;0.0000;-0.2751;0.6560
540;-1.3729;1.3966;0.0000;-0.3075;0.6404
541;-1.0620;1.3965;0.0000;-0.3182;0.6376
542;-0.7510;1.3963;0.0000;-0.2611;0.6320
543;-0.4398;1.3962;0.0000;-0.2405;0.6093
544;-0.1286;1.3963;0.0000;-0.2653;0.5843
545;0.1825;1.3964;0.0000;-0.2659;0.5706
546;0.4936;1.3965;0.0000;-0.2716;0.5681
547;0.8047;1.3965;0.0000;-0.2798;0.5693
548;1.1158;1.3963;0.0000;-0.2585;0.5690
549;1.4270;1.3963;0.0000;-0.2548;0.5819
550;1.7380;1.3963;0.0000;-0.2806;0.5896
551;2.0489;1.3960;0.0000;-0.2821;0.5972
552;2.3592;1.3955;0.0000;-0.2947;0.6059
553;2.6671;1.3944;0.0000;-0.3168;0.5947
554;2.9696;1.3926;0.0000;-0.3139;0.6043
555;3.2637;1.3934;0.0000;-0.3145;0.6059
556;3.5547;1.4118;0.0000;-0.3240;0.5911
557;-4.2948;1.1140;0.0000;-0.3234;0.6362
558;-3.9954;1.1240;0.0000;-0.3212;0.6248
559;-3.6947;1.1255;0.0000;-0.3162;0.5917
560;-3.3897;1.1258;0.0000;-0.3273;0.5519
561;-3.0817;1.1259;0.0000;-0.3147;0.5531
562;-2.7719;1.1257;0.0000;-0.3108;0.5758
563;-2.4615;1.1253;0.0000;-0.3042;0.5901
564;-2.1506;1.1251;0.0000;-0.2634;0.6138
565;-1.8395;1.1249;0.0000;-0.2654;0.6188
566;-1.5285;1.1249;0.0000;-0.2845;0.5941
567;-1.2175;1.1248;0.0000;-0.2965;0.5620
568;-0.9065;1.1246;0.0000;-0.2736;0.5162
569;-0.5953;1.1246;0.0000;-0.2338;0.4810
570;-0.2841;1.1247;0.0000;-0.2464;0.4783
571;0.0270;1.1248;0.0000;-0.2646;0.4969
572;0.3381;1.1249;0.0000;-0.2610;0.5163
573;0.6493;1.1249;0.0000;-0.2749;0.5224
574;0.9603;1.1248;0.0000;-0.2711;0.5177
575;1.2715;1.1247;0.0000;-0.2633;0.5242
576;1.5825;1.1247;0.0000;-0.2846;0.5348
577;1.8935;1.1246;0.0000;-0.2842;0.5206
578;2.2042;1.1242;0.0000;-0.2766;0.4906
579;2.5138;1.1235;0.0000;-0.2933;0.4758
580;2.8197;1.1216;0.0000;-0.3040;0.4915
581;3.1158;1.1193;0.0000;-0.3106;0.5130
582;3.3911;1.1254;0.0000;-0.3315;0.5254
583;3.6286;1.1372;0.0000;-0.3279;0.5319
584;-4.4162;0.8452;0.0000;-0.3229;0.5709
585;-4.1359;0.8517;0.0000;-0.3302;0.5663
586;-3.8435;0.8532;0.0000;-0.3260;0.5713
587;-3.5423;0.8540;0.0000;-0.3217;0.5526
588;-3.2360;0.8544;0.0000;-0.3255;0.5320
589;-2.9271;0.8543;0.0000;-0.3006;0.5415
590;-2.6169;0.8539;0.0000;-0.3063;0.5511
591;-2.3063;0.8535;0.0000;-0.2790;0.5405
592;-1.9953;0.8532;0.0000;-0.2523;0.5293
593;-1.6842;0.8532;0.0000;-0.2728;0.5225
594;-1.3731;0.8532;0.0000;-0.2685;0.5099
595;-1.0620;0.8532;0.0000;-0.2547;0.4638
596;-0.7508;0.8534;0.0000;-0.2383;0.4229
597;-0.4396;0.8534;0.0000;-0.2355;0.4117
598;-0.1284;0.8534;0.0000;-0.2605;0.4268
599;0.1827;0.8534;0.0000;-0.2706;0.4598
600;0.4938;0.8534;0.0000;-0.2705;0.4816
601;0.8049;0.8533;0.0000;-0.2833;0.5003
602;1.1159;0.8533;0.0000;-0.2731;0.5155
603;1.4270;0.8531;0.0000;-0.2651;0.5209
604;1.7381;0.8531;0.0000;-0.2725;0.5055
605;2.0491;0.8529;0.0000;-0.2782;0.4677
606;2.3597;0.8526;0.0000;-0.2818;0.4448
607;2.6693;0.8510;0.0000;-0.2884;0.4589
608;2.9758;0.8473;0.0000;-0.2993;0.4872
609;3.2758;0.8445;0.0000;-0.3191;0.5152
610;3.5641;0.8534;0.0000;-0.3502;0.5221
611;-4.2955;0.5854;0.0000;-0.3324;0.5505
612;-3.9959;0.5815;0.0000;-0.3402;0.5851
613;-3.6951;0.5818;0.0000;-0.3223;0.6142
614;-3.3901;0.5824;0.0000;-0.3228;0.6190
615;-3.0820;0.5826;0.0000;-0.3033;0.5983
616;-2.7722;0.5824;0.0000;-0.2867;0.5573
617;-2.4617;0.5821;0.0000;-0.2859;0.5049
618;-2.1508;0.5819;0.0000;-0.2509;0.4524
619;-1.8397;0.5818;0.0000;-0.2597;0.4401
620;-1.5287;0.5817;0.0000;-0.2687;0.4453
621;-1.2175;0.5819;0.0000;-0.2415;0.4345
622;-0.9063;0.5820;0.0000;-0.2363;0.4317
623;-0.5951;0.5821;0.0000;-0.2346;0.4339
624;-0.2839;0.5822;0.0000;-0.2416;0.4487
625;0.0273;0.5821;0.0000;-0.2764;0.4740
626;0.3383;0.5820;0.0000;-0.2848;0.4857
627;0.6493;0.5819;0.0000;-0.2867;0.4995
628;0.9603;0.5818;0.0000;-0.2783;0.5249
629;1.2715;0.5816;0.0000;-0.2503;0.5223
630;1.5827;0.5816;0.0000;-0.2504;0.5011
631;1.8938;0.5816;0.0000;-0.2756;0.4931
632;2.2048;0.5815;0.0000;-0.2857;0.4885
633;2.5160;0.5808;0.0000;-0.2746;0.4811
634;2.8281;0.5787;0.0000;-0.2898;0.4814
635;3.1433;0.5758;0.0000;-0.3037;0.4854
636;3.4684;0.5839;0.0000;-0.3400;0.4768
637;-4.3909;0.3249;0.0000;-0.3380;0.5796
638;-4.1321;0.3094;0.0000;-0.3308;0.5850
639;-3.8435;0.3089;0.0000;-0.3273;0.5942
640;-3.5427;0.3100;0.0000;-0.3182;0.5964
641;-3.2364;0.3106;0.0000;-0.3227;0.5704
642;-2.9274;0.3108;0.0000;-0.2937;0.5165
643;-2.6172;0.3107;0.0000;-0.2802;0.4623
644;-2.3064;0.3107;0.0000;-0.2466;0.4372
645;-1.9952;0.3106;0.0000;-0.2315;0.4149
646;-1.6841;0.3105;0.0000;-0.2513;0.3950
647;-1.3729;0.3105;0.0000;-0.2397;0.4067
648;-1.0617;0.3106;0.0000;-0.2383;0.4377
649;-0.7506;0.3107;0.0000;-0.2566;0.4610
650;-0.4395;0.3107;0.0000;-0.2496;0.4763
651;-0.1283;0.3106;0.0000;-0.2585;0.4903
652;0.1828;0.3105;0.0000;-0.2680;0.5095
653;0.4939;0.3105;0.0000;-0.2771;0.5226
654;0.8050;0.3103;0.0000;-0.2830;0.5281
655;1.1161;0.3101;0.0000;-0.2691;0.5335
656;1.4272;0.3101;0.0000;-0.2613;0.5234
657;1.7383;0.3101;0.0000;-0.2567;0.5225
658;2.0495;0.3100;0.0000;-0.2813;0.5494
659;2.3607;0.3099;0.0000;-0.2865;0.5673
660;2.6725;0.3091;0.0000;-0.2832;0.5559
661;2.9858;0.3077;0.0000;-0.2934;0.5275
662;3.3003;0.3081;0.0000;-0.2973;0.5036
663;3.6014;0.3282;0.0000;-0.3326;0.4992
664;-4.3163;0.0419;0.0000;-0.3207;0.5530
665;-4.0046;0.0375;0.0000;-0.3149;0.5199
666;-3.6982;0.0382;0.0000;-0.3090;0.4857
667;-3.3911;0.0389;0.0000;-0.3262;0.4884
668;-3.0824;0.0394;0.0000;-0.3134;0.4905
669;-2.7724;0.0395;0.0000;-0.2874;0.4628
670;-2.4618;0.0394;0.0000;-0.2686;0.4275
671;-2.1508;0.0393;0.0000;-0.2383;0.3934
672;-1.8396;0.0394;0.0000;-0.2282;0.3713
673;-1.5284;0.0393;0.0000;-0.2270;0.3695
674;-1.2172;0.0393;0.0000;-0.2256;0.4038
675;-0.9060;0.0393;0.0000;-0.2569;0.4593
676;-0.5950;0.0393;0.0000;-0.2604;0.4869
677;-0.2838;0.0392;0.0000;-0.2500;0.4734
678;0.0274;0.0391;0.0000;-0.2566;0.4665
679;0.3385;0.0389;0.0000;-0.2695;0.5029
680;0.6496;0.0388;0.0000;-0.2898;0.5481
681;0.9606;0.0386;0.0000;-0.2778;0.5732
682;1.2717;0.0384;0.0000;-0.2766;0.5802
683;1.5827;0.0385;0.0000;-0.2586;0.5724
684;1.8940;0.0385;0.0000;-0.2691;0.5743
685;2.2052;0.0383;0.0000;-0.3043;0.5945
686;2.5170;0.0381;0.0000;-0.2939;0.6149
687;2.8310;0.0378;0.0000;-0.2849;0.6117
688;3.1500;0.0378;0.0000;-0.2758;0.5849
689;3.4795;0.0367;0.0000;-0.2942;0.5744
690;-4.3952;-0.2370;0.0000;-0.2965;0.4707
691;-4.1380;-0.2348;0.0000;-0.3029;0.4670
692;-3.8460;-0.2326;0.0000;-0.2974;0.4354
693;-3.5435;-0.2322;0.0000;-0.3063;0.4268
694;-3.2366;-0.2322;0.0000;-0.3153;0.4734
695;-2.9273;-0.2320;0.0000;-0.2981;0.4962
696;-2.6170;-0.2320;0.0000;-0.2963;0.4641
697;-2.3063;-0.2318;0.0000;-0.2822;0.4178
698;-1.9953;-0.2318;0.0000;-0.2437;0.4037
699;-1.6841;-0.2318;0.0000;-0.2162;0.4134
700;-1.3729;-0.2318;0.0000;-0.2053;0.4153
701;-1.0615;-0.2320;0.0000;-0.2218;0.4360
702;-0.7504;-0.2322;0.0000;-0.2563;0.4663
703;-0.4392;-0.2322;0.0000;-0.2424;0.4776
704;-0.1280;-0.2322;0.0000;-0.2544;0.4736
705;0.1830;-0.2324;0.0000;-0.2788;0.4913
706;0.4941;-0.2327;0.0000;-0.2938;0.5418
707;0.8051;-0.2331;0.0000;-0.2750;0.5919
708;1.1163;-0.2334;0.0000;-0.2613;0.6028
709;1.4274;-0.2333;0.0000;-0.2689;0.5950
710;1.7385;-0.2332;0.0000;-0.2788;0.6107
711;2.0496;-0.2334;0.0000;-0.3136;0.6253
712;2.3609;-0.2334;0.0000;-0.3018;0.6400
713;2.6731;-0.2334;0.0000;-0.2789;0.6573
714;2.9866;-0.2331;0.0000;-0.2880;0.6380
715;3.2995;-0.2333;0.0000;-0.2842;0.6106
716;3.6004;-0.2571;0.0000;-0.2978;0.5948
717;-4.3121;-0.5182;0.0000;-0.3046;0.4383
718;-4.0018;-0.5036;0.0000;-0.2912;0.4491
719;-3.6970;-0.5030;0.0000;-0.2771;0.4673
720;-3.3905;-0.5033;0.0000;-0.2799;0.4808
721;-3.0819;-0.5035;0.0000;-0.2938;0.4826
722;-2.7721;-0.5034;0.0000;-0.3154;0.4888
723;-2.4616;-0.5033;0.0000;-0.3117;0.4927
724;-2.1508;-0.5031;0.0000;-0.2731;0.4943
725;-1.8397;-0.5032;0.0000;-0.2283;0.5027
726;-1.5285;-0.5032;0.0000;-0.2126;0.5096
727;-1.2172;-0.5033;0.0000;-0.2075;0.4938
728;-0.9059;-0.5035;0.0000;-0.2344;0.4691
729;-0.5948;-0.5036;0.0000;-0.2462;0.4667
730;-0.2836;-0.5036;0.0000;-0.2262;0.4965
731;0.0277;-0.5038;0.0000;-0.2589;0.5375
732;0.3387;-0.5042;0.0000;-0.3097;0.5617
733;0.6496;-0.5046;0.0000;-0.3015;0.5600
734;0.9606;-0.5050;0.0000;-0.2529;0.5521
735;1.2719;-0.5051;0.0000;-0.2536;0.5659
736;1.5831;-0.5050;0.0000;-0.2761;0.6074
737;1.8941;-0.5052;0.0000;-0.3142;0.6351
738;2.2052;-0.5053;0.0000;-0.3048;0.6377
739;2.5170;-0.5053;0.0000;-0.2697;0.6393
740;2.8302;-0.5051;0.0000;-0.2906;0.6245
741;3.1458;-0.5055;0.0000;-0.3060;0.5988
742;3.4665;-0.5091;0.0000;-0.2926;0.5894
743;-4.3860;-0.8092;0.0000;-0.3271;0.4788
744;-4.1264;-0.7751;0.0000;-0.2884;0.4868
745;-3.8405;-0.7742;0.0000;-0.2703;0.5159
746;-3.5413;-0.7747;0.0000;-0.2499;0.5290
747;-3.2355;-0.7749;0.0000;-0.2602;0.5166
748;-2.9267;-0.7749;0.0000;-0.3021;0.5193
749;-2.6167;-0.7749;0.0000;-0.3239;0.5523
750;-2.3062;-0.7748;0.0000;-0.2966;0.5761
751;-1.9952;-0.7747;0.0000;-0.2532;0.5784
752;-1.6840;-0.7748;0.0000;-0.2330;0.5707
753;-1.3728;-0.7749;0.0000;-0.2207;0.5616
754;-1.0615;-0.7749;0.0000;-0.2022;0.5497
755;-0.7502;-0.7750;0.0000;-0.2407;0.5371
756;-0.4391;-0.7751;0.0000;-0.2493;0.5390
757;-0.1279;-0.7753;0.0000;-0.2340;0.5623
758;0.1833;-0.7757;0.0000;-0.2796;0.5856
759;0.4943;-0.7760;0.0000;-0.2910;0.5857
760;0.8053;-0.7764;0.0000;-0.2684;0.5451
761;1.1165;-0.7766;0.0000;-0.2692;0.5208
762;1.4275;-0.7768;0.0000;-0.2876;0.5539
763;1.7386;-0.7769;0.0000;-0.2968;0.5815
764;2.0496;-0.7771;0.0000;-0.2990;0.5879
765;2.3609;-0.7771;0.0000;-0.2575;0.5739
766;2.6728;-0.7771;0.0000;-0.2602;0.5475
767;2.9843;-0.7777;0.0000;-0.3194;0.5517
768;3.2918;-0.7818;0.0000;-0.3126;0.5716
769;3.5780;-0.7652;0.0000;-0.3078;0.5766
770;-4.2815;-1.0462;0.0000;-0.3120;0.5700
771;-3.9892;-1.0470;0.0000;-0.2669;0.5680
772;-3.6923;-1.0470;0.0000;-0.2442;0.5595
773;-3.3887;-1.0467;0.0000;-0.2376;0.5477
774;-3.0812;-1.0466;0.0000;-0.2639;0.5589
775;-2.7716;-1.0466;0.0000;-0.2897;0.6003
776;-2.4612;-1.0466;0.0000;-0.2964;0.6407
777;-2.1504;-1.0466;0.0000;-0.2763;0.6448
778;-1.8394;-1.0466;0.0000;-0.2633;0.6276
779;-1.5283;-1.0465;0.0000;-0.2486;0.6353
780;-1.2171;-1.0466;0.0000;-0.2143;0.6613
781;-0.9057;-1.0467;0.0000;-0.2163;0.6637
782;-0.5946;-1.0468;0.0000;-0.2606;0.6527
783;-0.2835;-1.0469;0.0000;-0.2525;0.6337
784;0.0278;-1.0472;0.0000;-0.2595;0.6094
785;0.3387;-1.0477;0.0000;-0.2814;0.5974
786;0.6499;-1.0480;0.0000;-0.2610;0.5758
787;0.9610;-1.0481;0.0000;-0.2686;0.5406
788;1.2720;-1.0482;0.0000;-0.2950;0.5339
789;1.5830;-1.0484;0.0000;-0.2839;0.5409
790;1.8942;-1.0486;0.0000;-0.2763;0.5271
791;2.2055;-1.0487;0.0000;-0.2687;0.5147
792;2.5176;-1.0486;0.0000;-0.2478;0.5090
793;2.8317;-1.0485;0.0000;-0.2874;0.5277
794;3.1514;-1.0494;0.0000;-0.3244;0.5749
795;3.4893;-1.0534;0.0000;-0.3374;0.6087
796;-4.3848;-1.2817;0.0000;-0.3109;0.6261
797;-4.1252;-1.3184;0.0000;-0.2667;0.6013
798;-3.8396;-1.3202;0.0000;-0.2508;0.5856
799;-3.5408;-1.3192;0.0000;-0.2327;0.5723
800;-3.2351;-1.3185;0.0000;-0.2383;0.5696
801;-2.9264;-1.3184;0.0000;-0.2638;0.5904
802;-2.6163;-1.3186;0.0000;-0.2751;0.6069
803;-2.3057;-1.3186;0.0000;-0.2721;0.6176
804;-1.9946;-1.3185;0.0000;-0.2621;0.6360
805;-1.6835;-1.3185;0.0000;-0.2611;0.6728
806;-1.3725;-1.3187;0.0000;-0.2587;0.7082
807;-1.0613;-1.3188;0.0000;-0.2283;0.7076
808;-0.7501;-1.3188;0.0000;-0.2452;0.6988
809;-0.4389;-1.3189;0.0000;-0.2741;0.7040
810;-0.1279;-1.3189;0.0000;-0.2728;0.6928
811;0.1832;-1.3192;0.0000;-0.2810;0.6425
812;0.4943;-1.3195;0.0000;-0.2695;0.5865
813;0.8054;-1.3197;0.0000;-0.2545;0.5639
814;1.1165;-1.3197;0.0000;-0.2618;0.5580
815;1.4277;-1.3200;0.0000;-0.2742;0.5422
816;1.7388;-1.3201;0.0000;-0.2662;0.5235
817;2.0499;-1.3201;0.0000;-0.2713;0.5125
818;2.3613;-1.3201;0.0000;-0.2665;0.5173
819;2.6728;-1.3199;0.0000;-0.2682;0.5393
820;2.9839;-1.3196;0.0000;-0.3031;0.5685
821;3.2908;-1.3196;0.0000;-0.3336;0.6088
822;3.5740;-1.3422;0.0000;-0.3727;0.6382
823;-4.3118;-1.5732;0.0000;-0.2787;0.6002
824;-4.0012;-1.5908;0.0000;-0.2454;0.5740
825;-3.6963;-1.5915;0.0000;-0.2376;0.5767
826;-3.3900;-1.5906;0.0000;-0.2278;0.5896
827;-3.0814;-1.5902;0.0000;-0.2389;0.5810
828;-2.7715;-1.5902;0.0000;-0.2465;0.5453
829;-2.4608;-1.5903;0.0000;-0.2537;0.5315
830;-2.1499;-1.5903;0.0000;-0.2653;0.5781
831;-1.8389;-1.5904;0.0000;-0.2700;0.6159
832;-1.5278;-1.5906;0.0000;-0.2712;0.6155
833;-1.2168;-1.5907;0.0000;-0.2520;0.6267
834;-0.9056;-1.5908;0.0000;-0.2543;0.6545
835;-0.5944;-1.5909;0.0000;-0.2668;0.6715
836;-0.2833;-1.5910;0.0000;-0.2842;0.6879
837;0.0277;-1.5911;0.0000;-0.2920;0.6801
838;0.3387;-1.5912;0.0000;-0.2816;0.6332
839;0.6498;-1.5913;0.0000;-0.2550;0.6019
840;0.9610;-1.5914;0.0000;-0.2343;0.5840
841;1.2722;-1.5915;0.0000;-0.2561;0.5533
842;1.5833;-1.5916;0.0000;-0.2681;0.5311
843;1.8945;-1.5917;0.0000;-0.2652;0.5229
844;2.2057;-1.5918;0.0000;-0.2762;0.5256
845;2.5173;-1.5917;0.0000;-0.2824;0.5449
846;2.8295;-1.5916;0.0000;-0.2887;0.5587
847;3.1435;-1.5917;0.0000;-0.3224;0.5731
848;3.4638;-1.5975;0.0000;-0.3669;0.5980
849;-4.3950;-1.8546;0.0000;-0.2823;0.6416
850;-4.1381;-1.8583;0.0000;-0.2361;0.6225
851;-3.8458;-1.8624;0.0000;-0.2233;0.5955
852;-3.5431;-1.8625;0.0000;-0.2276;0.5983
853;-3.2360;-1.8620;0.0000;-0.2252;0.5909
854;-2.9265;-1.8618;0.0000;-0.2287;0.5746
855;-2.6161;-1.8617;0.0000;-0.2393;0.5795
856;-2.3052;-1.8619;0.0000;-0.2540;0.6099
857;-1.9942;-1.8621;0.0000;-0.2722;0.6221
858;-1.6832;-1.8621;0.0000;-0.2786;0.5913
859;-1.3722;-1.8623;0.0000;-0.2537;0.5830
860;-1.0609;-1.8626;0.0000;-0.2571;0.6149
861;-0.7499;-1.8627;0.0000;-0.2963;0.6332
862;-0.4389;-1.8628;0.0000;-0.2804;0.6377
863;-0.1278;-1.8630;0.0000;-0.2786;0.6368
864;0.1833;-1.8631;0.0000;-0.2832;0.6181
865;0.4943;-1.8631;0.0000;-0.2730;0.5912
866;0.8054;-1.8632;0.0000;-0.2407;0.5719
867;1.1167;-1.8631;0.0000;-0.2330;0.5488
868;1.4279;-1.8632;0.0000;-0.2639;0.5338
869;1.7390;-1.8633;0.0000;-0.2767;0.5293
870;2.0501;-1.8632;0.0000;-0.2819;0.5166
871;2.3613;-1.8633;0.0000;-0.2806;0.5199
872;2.6727;-1.8634;0.0000;-0.2883;0.5482
873;2.9838;-1.8632;0.0000;-0.3103;0.5814
874;3.2927;-1.8619;0.0000;-0.3448;0.5905
875;3.5979;-1.8570;0.0000;-0.3539;0.5971
876;-4.3157;-2.1344;0.0000;-0.2616;0.6342
877;-4.0046;-2.1322;0.0000;-0.1971;0.6278
878;-3.6980;-2.1336;0.0000;-0.2039;0.6134
879;-3.3906;-2.1337;0.0000;-0.2273;0.5938
880;-3.0816;-2.1335;0.0000;-0.2320;0.5909
881;-2.7714;-2.1336;0.0000;-0.2335;0.6251
882;-2.4607;-2.1337;0.0000;-0.2424;0.6593
883;-2.1496;-2.1340;0.0000;-0.2483;0.6604
884;-1.8385;-2.1340;0.0000;-0.2673;0.6422
885;-1.5275;-2.1340;0.0000;-0.2791;0.6225
886;-1.2164;-2.1343;0.0000;-0.2523;0.6129
887;-0.9053;-2.1345;0.0000;-0.2841;0.6207
888;-0.5943;-2.1346;0.0000;-0.3102;0.6315
889;-0.2834;-2.1347;0.0000;-0.2901;0.6188
890;0.0277;-2.1348;0.0000;-0.2686;0.5931
891;0.3389;-2.1348;0.0000;-0.2610;0.5638
892;0.6500;-2.1348;0.0000;-0.2628;0.5329
893;0.9611;-2.1347;0.0000;-0.2560;0.5111
894;1.2723;-2.1347;0.0000;-0.2582;0.4944
895;1.5834;-2.1348;0.0000;-0.2777;0.4891
896;1.8945;-2.1348;0.0000;-0.2868;0.5042
897;2.2056;-2.1348;0.0000;-0.2916;0.5065
898;2.5171;-2.1350;0.0000;-0.2779;0.5018
899;2.8292;-2.1352;0.0000;-0.2821;0.5298
900;3.1424;-2.1339;0.0000;-0.3253;0.5589
901;3.4619;-2.1223;0.0000;-0.3343;0.5646
902;-4.3899;-2.4169;0.0000;-0.2422;0.5190
903;-4.1317;-2.4040;0.0000;-0.1949;0.5516
904;-3.8434;-2.4045;0.0000;-0.1986;0.5818
905;-3.5423;-2.4052;0.0000;-0.2286;0.5845
906;-3.2357;-2.4052;0.0000;-0.2298;0.5808
907;-2.9264;-2.4052;0.0000;-0.2306;0.5657
908;-2.6159;-2.4055;0.0000;-0.2449;0.5500
909;-2.3051;-2.4057;0.0000;-0.2512;0.5603
910;-1.9941;-2.4059;0.0000;-0.2399;0.5709
911;-1.6829;-2.4058;0.0000;-0.2675;0.5809
912;-1.3719;-2.4059;0.0000;-0.2855;0.5833
913;-1.0608;-2.4062;0.0000;-0.2617;0.5744
914;-0.7497;-2.4064;0.0000;-0.2816;0.5869
915;-0.4387;-2.4065;0.0000;-0.3075;0.5991
916;-0.1277;-2.4066;0.0000;-0.2822;0.5820
917;0.1834;-2.4065;0.0000;-0.2492;0.5543
918;0.4946;-2.4064;0.0000;-0.2538;0.5408
919;0.8057;-2.4063;0.0000;-0.2792;0.5308
920;1.1167;-2.4061;0.0000;-0.2861;0.5153
921;1.4278;-2.4061;0.0000;-0.2832;0.4984
922;1.7388;-2.4062;0.0000;-0.2897;0.4878
923;2.0500;-2.4063;0.0000;-0.2980;0.4940
924;2.3611;-2.4064;0.0000;-0.2910;0.4906
925;2.6723;-2.4068;0.0000;-0.2543;0.4797
926;2.9828;-2.4074;0.0000;-0.2804;0.4822
927;3.2872;-2.4036;0.0000;-0.3413;0.4859
928;3.5687;-2.3736;0.0000;-0.3223;0.4858
929;-4.2952;-2.6785;0.0000;-0.2107;0.4630
930;-3.9958;-2.6768;0.0000;-0.2023;0.4907
931;-3.6949;-2.6770;0.0000;-0.2301;0.5222
932;-3.3896;-2.6770;0.0000;-0.2137;0.5345
933;-3.0811;-2.6769;0.0000;-0.2147;0.5287
934;-2.7712;-2.6768;0.0000;-0.2519;0.4837
935;-2.4606;-2.6770;0.0000;-0.2631;0.4467
936;-2.1496;-2.6773;0.0000;-0.2402;0.4515
937;-1.8385;-2.6774;0.0000;-0.2431;0.4796
938;-1.5274;-2.6775;0.0000;-0.2801;0.5115
939;-1.2164;-2.6777;0.0000;-0.2804;0.5248
940;-0.9052;-2.6779;0.0000;-0.2541;0.5271
941;-0.5941;-2.6781;0.0000;-0.2746;0.5370
942;-0.2831;-2.6783;0.0000;-0.2886;0.5419
943;0.0280;-2.6782;0.0000;-0.2696;0.5335
944;0.3391;-2.6780;0.0000;-0.2631;0.5196
945;0.6502;-2.6780;0.0000;-0.2761;0.5143
946;0.9613;-2.6779;0.0000;-0.2813;0.5260
947;1.2724;-2.6777;0.0000;-0.2823;0.5391
948;1.5833;-2.6777;0.0000;-0.3155;0.5364
949;1.8943;-2.6778;0.0000;-0.3150;0.5199
950;2.2055;-2.6779;0.0000;-0.2983;0.5035
951;2.5175;-2.6780;0.0000;-0.2615;0.4824
952;2.8315;-2.6785;0.0000;-0.2465;0.4590
953;3.1510;-2.6781;0.0000;-0.3043;0.4448
954;3.4840;-2.6652;0.0000;-0.3128;0.4290
955;-4.4145;-2.9381;0.0000;-0.2213;0.5192
956;-4.1355;-2.9461;0.0000;-0.2113;0.5187
957;-3.8433;-2.9484;0.0000;-0.2288;0.5327
958;-3.5421;-2.9486;0.0000;-0.2144;0.5382
959;-3.2354;-2.9484;0.0000;-0.1793;0.5329
960;-2.9262;-2.9483;0.0000;-0.2295;0.5296
961;-2.6159;-2.9482;0.0000;-0.2668;0.5055
962;-2.3052;-2.9484;0.0000;-0.2591;0.4666
963;-1.9941;-2.9487;0.0000;-0.2376;0.4628
964;-1.6829;-2.9488;0.0000;-0.2469;0.4893
965;-1.3718;-2.9490;0.0000;-0.2814;0.5057
966;-1.0608;-2.9493;0.0000;-0.2816;0.5215
967;-0.7497;-2.9496;0.0000;-0.2652;0.5289
968;-0.4386;-2.9497;0.0000;-0.2708;0.5138
969;-0.1275;-2.9498;0.0000;-0.2747;0.5058
970;0.1836;-2.9497;0.0000;-0.2723;0.5088
971;0.4947;-2.9494;0.0000;-0.2783;0.5070
972;0.8057;-2.9494;0.0000;-0.2821;0.5124
973;1.1168;-2.9493;0.0000;-0.2650;0.5252
974;1.4280;-2.9493;0.0000;-0.2878;0.5316
975;1.7390;-2.9494;0.0000;-0.3277;0.5173
976;2.0499;-2.9494;0.0000;-0.3259;0.4779
977;2.3612;-2.9493;0.0000;-0.2913;0.4511
978;2.6732;-2.9493;0.0000;-0.2401;0.4419
979;2.9864;-2.9493;0.0000;-0.2562;0.4184
980;3.2968;-2.9490;0.0000;-0.2985;0.3979
981;3.5770;-2.9492;0.0000;-0.2925;0.3960
982;-4.2937;-3.2077;0.0000;-0.2340;0.5883
983;-3.9950;-3.2188;0.0000;-0.2188;0.6018
984;-3.6945;-3.2205;0.0000;-0.2149;0.5889
985;-3.3894;-3.2203;0.0000;-0.1784;0.5700
986;-3.0810;-3.2201;0.0000;-0.1880;0.5686
987;-2.7711;-3.2200;0.0000;-0.2347;0.5881
988;-2.4605;-3.2199;0.0000;-0.2620;0.5773
989;-2.1496;-3.2200;0.0000;-0.2654;0.5268
990;-1.8386;-3.2202;0.0000;-0.2495;0.5082
991;-1.5274;-3.2205;0.0000;-0.2531;0.5084
992;-1.2163;-3.2207;0.0000;-0.2716;0.5064
993;-0.9052;-3.2210;0.0000;-0.2822;0.5107
994;-0.5942;-3.2213;0.0000;-0.2769;0.5027
995;-0.2831;-3.2213;0.0000;-0.2621;0.4887
996;0.0281;-3.2212;0.0000;-0.2637;0.4853
997;0.3392;-3.2211;0.0000;-0.2644;0.5116
998;0.6503;-3.2210;0.0000;-0.2858;0.5452
999;0.9613;-3.2210;0.0000;-0.3024;0.5521
1000;1.2723;-3.2209;0.0000;-0.2919;0.5325
1001;1.5833;-3.2209;0.0000;-0.3021;0.5005
1002;1.8943;-3.2208;0.0000;-0.3142;0.4678
1003;2.2055;-3.2206;0.0000;-0.3040;0.4496
1004;2.5175;-3.2204;0.0000;-0.2602;0.4483
1005;2.8316;-3.2201;0.0000;-0.2527;0.4306
1006;3.1508;-3.2203;0.0000;-0.2800;0.4110
1007;3.4833;-3.2332;0.0000;-0.2720;0.4203
1008;-4.3865;-3.4634;0.0000;-0.2435;0.5943
1009;-4.1294;-3.4884;0.0000;-0.2128;0.5925
1010;-3.8420;-3.4928;0.0000;-0.2114;0.5610
1011;-3.5418;-3.4925;0.0000;-0.1980;0.5544
1012;-3.2354;-3.4920;0.0000;-0.1818;0.5684
1013;-2.9263;-3.4918;0.0000;-0.2113;0.5782
1014;-2.6159;-3.4918;0.0000;-0.2326;0.5850
1015;-2.3050;-3.4917;0.0000;-0.2540;0.5672
1016;-1.9941;-3.4917;0.0000;-0.2694;0.5334
1017;-1.6830;-3.4919;0.0000;-0.2617;0.4995
1018;-1.3719;-3.4920;0.0000;-0.2467;0.4810
1019;-1.0607;-3.4924;0.0000;-0.2617;0.4782
1020;-0.7496;-3.4926;0.0000;-0.2913;0.4679
1021;-0.4386;-3.4927;0.0000;-0.2711;0.4642
1022;-0.1275;-3.4927;0.0000;-0.2509;0.4723
1023;0.1837;-3.4926;0.0000;-0.2544;0.4878
1024;0.4949;-3.4926;0.0000;-0.2615;0.5250
1025;0.8059;-3.4927;0.0000;-0.3127;0.5562
1026;1.1168;-3.4926;0.0000;-0.3228;0.5570
1027;1.4277;-3.4924;0.0000;-0.2916;0.5334
1028;1.7388;-3.4923;0.0000;-0.3032;0.5071
1029;2.0498;-3.4921;0.0000;-0.3098;0.5060
1030;2.3610;-3.4919;0.0000;-0.2673;0.5096
1031;2.6724;-3.4916;0.0000;-0.2567;0.4887
1032;2.9824;-3.4912;0.0000;-0.2902;0.4590
1033;3.2859;-3.4955;0.0000;-0.2756;0.4385
1034;3.5638;-3.5260;0.0000;-0.2451;0.4314
1035;-4.3117;-3.7513;0.0000;-0.2227;0.5690
1036;-4.0024;-3.7637;0.0000;-0.2019;0.5311
1037;-3.6971;-3.7645;0.0000;-0.2143;0.5244
1038;-3.3903;-3.7640;0.0000;-0.2015;0.5447
1039;-3.0815;-3.7637;0.0000;-0.2064;0.5612
1040;-2.7714;-3.7636;0.0000;-0.2347;0.5580
1041;-2.4607;-3.7635;0.0000;-0.2384;0.5573
1042;-2.1496;-3.7634;0.0000;-0.2469;0.5569
1043;-1.8386;-3.7634;0.0000;-0.2643;0.5365
1044;-1.5275;-3.7635;0.0000;-0.2605;0.5174
1045;-1.2163;-3.7637;0.0000;-0.2496;0.4907
1046;-0.9052;-3.7640;0.0000;-0.2742;0.4519
1047;-0.5942;-3.7641;0.0000;-0.2742;0.4418
1048;-0.2830;-3.7642;0.0000;-0.2506;0.4636
1049;0.0281;-3.7641;0.0000;-0.2647;0.4849
1050;0.3392;-3.7641;0.0000;-0.2646;0.5111
1051;0.6503;-3.7643;0.0000;-0.2723;0.5292
1052;0.9614;-3.7643;0.0000;-0.3017;0.5314
1053;1.2724;-3.7642;0.0000;-0.2969;0.5497
1054;1.5834;-3.7640;0.0000;-0.3038;0.5553
1055;1.8943;-3.7637;0.0000;-0.3179;0.5410
1056;2.2054;-3.7636;0.0000;-0.2849;0.5304
1057;2.5169;-3.7635;0.0000;-0.2609;0.5222
1058;2.8285;-3.7634;0.0000;-0.2904;0.5078
1059;3.1409;-3.7655;0.0000;-0.2844;0.4771
1060;3.4590;-3.7778;0.0000;-0.2478;0.4498
1061;-4.3977;-4.0269;0.0000;-0.2306;0.4912
1062;-4.1385;-4.0347;0.0000;-0.2107;0.5018
1063;-3.8460;-4.0362;0.0000;-0.2086;0.5138
1064;-3.5432;-4.0361;0.0000;-0.2065;0.5301
1065;-3.2360;-4.0359;0.0000;-0.2051;0.5418
1066;-2.9264;-4.0357;0.0000;-0.2284;0.5451
1067;-2.6161;-4.0357;0.0000;-0.2530;0.5474
1068;-2.3053;-4.0356;0.0000;-0.2435;0.5448
1069;-1.9942;-4.0354;0.0000;-0.2388;0.5515
1070;-1.6830;-4.0354;0.0000;-0.2673;0.5620
1071;-1.3720;-4.0355;0.0000;-0.2662;0.5392
1072;-1.0609;-4.0355;0.0000;-0.2575;0.4936
1073;-0.7497;-4.0356;0.0000;-0.2610;0.4647
1074;-0.4386;-4.0357;0.0000;-0.2569;0.4662
1075;-0.1274;-4.0358;0.0000;-0.2591;0.4840
1076;0.1836;-4.0357;0.0000;-0.2791;0.5112
1077;0.4947;-4.0359;0.0000;-0.2532;0.5196
1078;0.8059;-4.0359;0.0000;-0.2565;0.5124
1079;1.1170;-4.0358;0.0000;-0.2834;0.5213
1080;1.4280;-4.0358;0.0000;-0.3040;0.5369
1081;1.7390;-4.0355;0.0000;-0.3214;0.5479
1082;2.0500;-4.0352;0.0000;-0.2968;0.5548
1083;2.3611;-4.0350;0.0000;-0.2715;0.5596
1084;2.6722;-4.0350;0.0000;-0.2861;0.5509
1085;2.9822;-4.0355;0.0000;-0.2874;0.5320
1086;3.2898;-4.0378;0.0000;-0.2759;0.5109
1087;3.5934;-4.0430;0.0000;-0.2516;0.4710
1088;-4.3139;-4.3139;0.0000;-0.2141;0.4534
1089;-4.0032;-4.3085;0.0000;-0.2055;0.4757
1090;-3.6974;-4.3089;0.0000;-0.2002;0.4984
1091;-3.3903;-4.3089;0.0000;-0.2187;0.5307
1092;-3.0814;-4.3087;0.0000;-0.2213;0.5377
1093;-2.7712;-4.3086;0.0000;-0.2346;0.5209
1094;-2.4604;-4.3084;0.0000;-0.2378;0.5175
1095;-2.1494;-4.3082;0.0000;-0.2359;0.5346
1096;-1.8383;-4.3081;0.0000;-0.2537;0.5523
1097;-1.5273;-4.3081;0.0000;-0.2711;0.5572
1098;-1.2162;-4.3079;0.0000;-0.2566;0.5438
1099;-0.9050;-4.3078;0.0000;-0.2479;0.5217
1100;-0.5938;-4.3078;0.0000;-0.2691;0.4987
1101;-0.2828;-4.3078;0.0000;-0.2692;0.4845
1102;0.0284;-4.3078;0.0000;-0.2677;0.4944
1103;0.3395;-4.3078;0.0000;-0.2526;0.5021
1104;0.6507;-4.3078;0.0000;-0.2296;0.4920
1105;0.9619;-4.3077;0.0000;-0.2477;0.4836
1106;1.2730;-4.3075;0.0000;-0.2810;0.4982
1107;1.5841;-4.3072;0.0000;-0.3137;0.5371
1108;1.8950;-4.3069;0.0000;-0.3188;0.5680
1109;2.2060;-4.3067;0.0000;-0.2937;0.5966
1110;2.5173;-4.3066;0.0000;-0.2845;0.6107
1111;2.8286;-4.3065;0.0000;-0.2647;0.5774
1112;3.1409;-4.3064;0.0000;-0.2689;0.5362
1113;3.4592;-4.3011;0.0000;-0.2833;0.5083
1114;-4.3857;-4.6029;0.0000;-0.2041;0.4476
1115;-4.1274;-4.5844;0.0000;-0.1911;0.4518
1116;-3.8403;-4.5839;0.0000;-0.1919;0.4655
1117;-3.5398;-4.5837;0.0000;-0.2036;0.4787
1118;-3.2333;-4.5835;0.0000;-0.2282;0.4894
1119;-2.9241;-4.5831;0.0000;-0.2398;0.4863
1120;-2.6138;-4.5827;0.0000;-0.2311;0.4865
1121;-2.3029;-4.5824;0.0000;-0.2266;0.5174
1122;-1.9917;-4.5820;0.0000;-0.2329;0.5259
1123;-1.6805;-4.5818;0.0000;-0.2475;0.5183
1124;-1.3694;-4.5816;0.0000;-0.2661;0.5382
1125;-1.0583;-4.5812;0.0000;-0.2637;0.5537
1126;-0.7471;-4.5808;0.0000;-0.2621;0.5471
1127;-0.4360;-4.5805;0.0000;-0.2790;0.5200
1128;-0.1250;-4.5803;0.0000;-0.2747;0.5004
1129;0.1861;-4.5800;0.0000;-0.2547;0.4966
1130;0.4974;-4.5799;0.0000;-0.2171;0.4869
1131;0.8087;-4.5795;0.0000;-0.2242;0.4874
1132;1.1199;-4.5791;0.0000;-0.2579;0.5135
1133;1.4310;-4.5790;0.0000;-0.2832;0.5428
1134;1.7421;-4.5787;0.0000;-0.3078;0.5639
1135;2.0531;-4.5782;0.0000;-0.2969;0.5825
1136;2.3640;-4.5780;0.0000;-0.3001;0.5913
1137;2.6746;-4.5777;0.0000;-0.2782;0.5743
1138;2.9838;-4.5771;0.0000;-0.2343;0.5344
1139;3.2875;-4.5750;0.0000;-0.2808;0.5098
1140;3.5680;-4.5505;0.0000;-0.3003;0.5024
1141;-4.2847;-4.8648;0.0000;-0.1944;0.4587
1142;-3.9855;-4.8636;0.0000;-0.1809;0.4620
1143;-3.6841;-4.8617;0.0000;-0.1852;0.4619
1144;-3.3784;-4.8605;0.0000;-0.2175;0.4414
1145;-3.0699;-4.8597;0.0000;-0.2369;0.4290
1146;-2.7598;-4.8588;0.0000;-0.2376;0.4534
1147;-2.4489;-4.8581;0.0000;-0.2208;0.4733
1148;-2.1378;-4.8576;0.0000;-0.2289;0.4778
1149;-1.8266;-4.8569;0.0000;-0.2295;0.4833
1150;-1.5153;-4.8563;0.0000;-0.2429;0.4968
1151;-1.2041;-4.8557;0.0000;-0.2750;0.5277
1152;-0.8930;-4.8551;0.0000;-0.2730;0.5545
1153;-0.5818;-4.8544;0.0000;-0.2635;0.5606
1154;-0.2706;-4.8536;0.0000;-0.2745;0.5474
1155;0.0405;-4.8531;0.0000;-0.2655;0.5268
1156;0.3517;-4.8525;0.0000;-0.2347;0.5035
1157;0.6631;-4.8518;0.0000;-0.2184;0.5062
1158;0.9744;-4.8513;0.0000;-0.2455;0.5357
1159;1.2856;-4.8507;0.0000;-0.2558;0.5373
1160;1.5968;-4.8500;0.0000;-0.2714;0.5196
1161;1.9079;-4.8493;0.0000;-0.2787;0.5216
1162;2.2193;-4.8487;0.0000;-0.2711;0.5151
1163;2.5307;-4.8480;0.0000;-0.3015;0.4952
1164;2.8428;-4.8467;0.0000;-0.2710;0.5111
1165;3.1585;-4.8433;0.0000;-0.2612;0.5313
1166;3.4876;-4.8327;0.0000;-0.3082;0.5212
1167;-4.3872;-5.1218;0.0000;-0.2317;0.4554
1168;-4.1081;-5.1427;0.0000;-0.1861;0.4718
1169;-3.8116;-5.1408;0.0000;-0.1719;0.4784
1170;-3.5073;-5.1389;0.0000;-0.1928;0.4717
1171;-3.1993;-5.1373;0.0000;-0.2178;0.4560
1172;-2.8894;-5.1360;0.0000;-0.2449;0.4658
1173;-2.5787;-5.1349;0.0000;-0.2405;0.4773
1174;-2.2675;-5.1337;0.0000;-0.2163;0.4585
1175;-1.9561;-5.1326;0.0000;-0.2181;0.4576
1176;-1.6447;-5.1315;0.0000;-0.2422;0.4697
1177;-1.3333;-5.1306;0.0000;-0.2609;0.4756
1178;-1.0220;-5.1295;0.0000;-0.2620;0.4838
1179;-0.7107;-5.1284;0.0000;-0.2560;0.5036
1180;-0.3993;-5.1272;0.0000;-0.2612;0.5288
1181;-0.0881;-5.1260;0.0000;-0.2692;0.5372
1182;0.2233;-5.1249;0.0000;-0.2521;0.5265
1183;0.5346;-5.1237;0.0000;-0.2397;0.5039
1184;0.8460;-5.1227;0.0000;-0.2515;0.4868
1185;1.1574;-5.1216;0.0000;-0.2386;0.4809
1186;1.4688;-5.1204;0.0000;-0.2196;0.4734
1187;1.7803;-5.1192;0.0000;-0.2580;0.4765
1188;2.0915;-5.1180;0.0000;-0.2654;0.4767
1189;2.4028;-5.1168;0.0000;-0.2719;0.4567
1190;2.7132;-5.1153;0.0000;-0.2837;0.4713
1191;3.0207;-5.1132;0.0000;-0.2654;0.5132
1192;3.3174;-5.1079;0.0000;-0.2843;0.5208
1193;3.5764;-5.1039;0.0000;-0.3155;0.5061
