# Units: length:mm angle:deg time:s strain:% 
# Stage: image-000040
stage;index;relative_time;date
"image-000040";41;40.0000;"2022-09-26T12:01:30.387"
# Name : Surface_xy
id;x;y;z;epsilon_x;epsilon_y
0;-4.4817;5.7209;0.0000;-0.7733;1.2631
1;-4.1718;5.7209;0.0000;-0.7513;1.3054
2;-3.8618;5.7210;0.0000;-0.6906;1.4151
3;-3.5514;5.7211;0.0000;-0.6295;1.4423
4;-3.2411;5.7211;0.0000;-0.6945;1.4314
5;-2.9311;5.7213;0.0000;-0.7762;1.4297
6;-2.6213;5.7215;0.0000;-0.7611;1.4031
7;-2.3113;5.7216;0.0000;-0.7062;1.3818
8;-2.0011;5.7217;0.0000;-0.6972;1.3427
9;-1.6910;5.7217;0.0000;-0.6754;1.3059
10;-1.3807;5.7218;0.0000;-0.6861;1.3837
11;-1.0706;5.7217;0.0000;-0.7330;1.4690
12;-0.7606;5.7216;0.0000;-0.7608;1.4994
13;-0.4507;5.7216;0.0000;-0.7382;1.4893
14;-0.1406;5.7215;0.0000;-0.7409;1.4423
15;0.1695;5.7214;0.0000;-0.7434;1.4541
16;0.4796;5.7210;0.0000;-0.7269;1.4867
17;0.7897;5.7203;0.0000;-0.7256;1.4576
18;1.0998;5.7199;0.0000;-0.7273;1.4836
19;1.4097;5.7197;0.0000;-0.7513;1.5041
20;1.7197;5.7191;0.0000;-0.7171;1.4007
21;2.0298;5.7189;0.0000;-0.6881;1.3758
22;2.3399;5.7189;0.0000;-0.6800;1.4250
23;2.6502;5.7189;0.0000;-0.6960;1.3959
24;2.9602;5.7189;0.0000;-0.7515;1.3699
25;3.2702;5.7188;0.0000;-0.7998;1.3802
26;3.5798;5.7188;0.0000;-0.8393;1.3851
27;3.8267;5.6084;0.0000;-0.8469;1.4147
28;3.8253;5.2915;0.0000;-0.8164;1.4381
29;3.8236;4.9748;0.0000;-0.7937;1.3968
30;3.8219;4.6581;0.0000;-0.8253;1.4266
31;3.8203;4.3412;0.0000;-0.8813;1.4768
32;3.8189;4.0242;0.0000;-0.9075;1.4633
33;3.8177;3.7074;0.0000;-0.8606;1.5077
34;3.8164;3.3903;0.0000;-0.8284;1.5226
35;3.8153;3.0733;0.0000;-0.7839;1.4409
36;3.8142;2.7566;0.0000;-0.8036;1.3940
37;3.8131;2.4400;0.0000;-0.8723;1.3974
38;3.8121;2.1232;0.0000;-0.9004;1.4926
39;3.8111;1.8059;0.0000;-0.9216;1.6334
40;3.8103;1.4885;0.0000;-0.8892;1.5689
41;3.8096;1.1715;0.0000;-0.8060;1.4204
42;3.8087;0.8549;0.0000;-0.8454;1.3908
43;3.8080;0.5383;0.0000;-0.8743;1.3326
44;3.8076;0.2219;0.0000;-0.8231;1.3666
45;3.8068;-0.0949;0.0000;-0.8005;1.4869
46;3.8057;-0.4120;0.0000;-0.8624;1.5138
47;3.8050;-0.7290;0.0000;-0.8109;1.5179
48;3.8042;-1.0459;0.0000;-0.8955;1.5942
49;3.8033;-1.3635;0.0000;-0.9452;1.6918
50;3.8024;-1.6811;0.0000;-0.9844;1.6255
51;3.8017;-1.9985;0.0000;-0.8851;1.6122
52;3.8010;-2.3158;0.0000;-0.8373;1.5009
53;3.8004;-2.6323;0.0000;-0.7854;1.2788
54;3.7999;-2.9485;0.0000;-0.7679;1.2219
55;3.7991;-3.2646;0.0000;-0.7693;1.2301
56;3.7982;-3.5808;0.0000;-0.7729;1.2455
57;3.7974;-3.8970;0.0000;-0.7571;1.2431
58;3.7965;-4.2131;0.0000;-0.7201;1.2530
59;3.7959;-4.5295;0.0000;-0.7365;1.3595
60;3.7951;-4.8462;0.0000;-0.8061;1.4048
61;3.7943;-5.1629;0.0000;-0.8296;1.3773
62;3.7936;-5.4794;0.0000;-0.8327;1.3591
63;3.5304;-5.5530;0.0000;-0.7962;1.4088
64;3.2205;-5.5553;0.0000;-0.7730;1.4196
65;2.9106;-5.5572;0.0000;-0.7950;1.3506
66;2.6006;-5.5590;0.0000;-0.7410;1.3119
67;2.2905;-5.5609;0.0000;-0.6802;1.3315
68;1.9803;-5.5627;0.0000;-0.6910;1.3166
69;1.6702;-5.5643;0.0000;-0.6534;1.2798
70;1.3598;-5.5661;0.0000;-0.5944;1.3369
71;1.0492;-5.5678;0.0000;-0.6214;1.3275
72;0.7390;-5.5693;0.0000;-0.7030;1.2866
73;0.4290;-5.5712;0.0000;-0.6840;1.3747
74;0.1187;-5.5729;0.0000;-0.6666;1.3862
75;-0.1914;-5.5745;0.0000;-0.7161;1.3235
76;-0.5014;-5.5762;0.0000;-0.7170;1.3274
77;-0.8116;-5.5779;0.0000;-0.6990;1.2844
78;-1.1218;-5.5794;0.0000;-0.7192;1.2120
79;-1.4317;-5.5806;0.0000;-0.7319;1.1659
80;-1.7418;-5.5820;0.0000;-0.6784;1.1695
81;-2.0521;-5.5836;0.0000;-0.6499;1.2278
82;-2.3624;-5.5853;0.0000;-0.6974;1.2861
83;-2.6725;-5.5869;0.0000;-0.7767;1.3227
84;-2.9822;-5.5880;0.0000;-0.7694;1.2584
85;-3.2922;-5.5894;0.0000;-0.7039;1.2530
86;-3.6024;-5.5908;0.0000;-0.6651;1.2431
87;-3.9127;-5.5920;0.0000;-0.6765;1.1998
88;-4.2228;-5.5935;0.0000;-0.7182;1.2470
89;-4.5316;-5.5709;0.0000;-0.7585;1.2519
90;-4.5813;-5.3002;0.0000;-0.7913;1.2128
91;-4.5811;-4.9842;0.0000;-0.7042;1.1875
92;-4.5809;-4.6683;0.0000;-0.6687;1.1381
93;-4.5807;-4.3525;0.0000;-0.7416;1.2121
94;-4.5808;-4.0361;0.0000;-0.8165;1.4683
95;-4.5811;-3.7187;0.0000;-0.8128;1.5924
96;-4.5812;-3.4016;0.0000;-0.8232;1.4738
97;-4.5815;-3.0850;0.0000;-0.7498;1.3130
98;-4.5816;-2.7688;0.0000;-0.7583;1.2898
99;-4.5817;-2.4522;0.0000;-0.8570;1.5263
100;-4.5819;-2.1346;0.0000;-0.8523;1.6374
101;-4.5821;-1.8174;0.0000;-0.7891;1.5807
102;-4.5821;-1.5001;0.0000;-0.8139;1.6231
103;-4.5820;-1.1826;0.0000;-0.8728;1.5279
104;-4.5822;-0.8659;0.0000;-0.8269;1.2808
105;-4.5824;-0.5499;0.0000;-0.8149;1.2033
106;-4.5825;-0.2337;0.0000;-0.8218;1.4422
107;-4.5826;0.0836;0.0000;-0.8741;1.5725
108;-4.5828;0.4008;0.0000;-0.8731;1.4955
109;-4.5829;0.7177;0.0000;-0.8572;1.5284
110;-4.5830;1.0350;0.0000;-0.8143;1.6035
111;-4.5830;1.3522;0.0000;-0.8513;1.5647
112;-4.5833;1.6693;0.0000;-0.8270;1.5969
113;-4.5834;1.9870;0.0000;-0.8748;1.6510
114;-4.5834;2.3043;0.0000;-0.8632;1.4470
115;-4.5834;2.6206;0.0000;-0.7799;1.3999
116;-4.5831;2.9377;0.0000;-0.8181;1.6619
117;-4.5832;3.2556;0.0000;-0.8961;1.7403
118;-4.5839;3.5730;0.0000;-0.8628;1.6733
119;-4.5843;3.8906;0.0000;-0.9025;1.6147
120;-4.5848;4.2078;0.0000;-0.9405;1.4658
121;-4.5857;4.5244;0.0000;-0.8809;1.4630
122;-4.5864;4.8415;0.0000;-0.8769;1.6424
123;-4.5869;5.1593;0.0000;-0.9212;1.5969
124;-4.5878;5.4762;0.0000;-0.8128;1.4162
125;-4.2916;5.4411;0.0000;-0.7818;1.3915
126;-3.9914;5.4366;0.0000;-0.7437;1.4300
127;-3.6877;5.4338;0.0000;-0.6656;1.4813
128;-3.3805;5.4329;0.0000;-0.6614;1.4929
129;-3.0719;5.4325;0.0000;-0.7296;1.4788
130;-2.7627;5.4325;0.0000;-0.7608;1.4565
131;-2.4531;5.4327;0.0000;-0.7177;1.4137
132;-2.1432;5.4326;0.0000;-0.7027;1.3735
133;-1.8334;5.4329;0.0000;-0.7056;1.3685
134;-1.5233;5.4329;0.0000;-0.6880;1.4183
135;-1.2134;5.4325;0.0000;-0.7196;1.4866
136;-0.9036;5.4320;0.0000;-0.7489;1.5145
137;-0.5939;5.4318;0.0000;-0.7411;1.5197
138;-0.2840;5.4319;0.0000;-0.7531;1.5252
139;0.0256;5.4318;0.0000;-0.8037;1.5348
140;0.3352;5.4314;0.0000;-0.7942;1.5334
141;0.6449;5.4307;0.0000;-0.7678;1.4829
142;0.9546;5.4300;0.0000;-0.7278;1.4342
143;1.2645;5.4296;0.0000;-0.7183;1.4398
144;1.5744;5.4292;0.0000;-0.7120;1.4195
145;1.8843;5.4290;0.0000;-0.6822;1.3647
146;2.1942;5.4288;0.0000;-0.6766;1.3579
147;2.5033;5.4288;0.0000;-0.6914;1.3652
148;2.8092;5.4293;0.0000;-0.7391;1.3720
149;3.1065;5.4302;0.0000;-0.7741;1.3957
150;3.3852;5.4323;0.0000;-0.8074;1.4090
151;3.6256;5.4242;0.0000;-0.8344;1.4161
152;-4.3873;5.1549;0.0000;-0.8438;1.5988
153;-4.1154;5.1531;0.0000;-0.7909;1.5595
154;-3.8249;5.1483;0.0000;-0.7337;1.5248
155;-3.5239;5.1465;0.0000;-0.6789;1.5313
156;-3.2179;5.1460;0.0000;-0.6847;1.5225
157;-2.9095;5.1459;0.0000;-0.7096;1.5019
158;-2.6003;5.1461;0.0000;-0.7058;1.4992
159;-2.2907;5.1463;0.0000;-0.6992;1.4969
160;-1.9810;5.1465;0.0000;-0.7572;1.5288
161;-1.6714;5.1463;0.0000;-0.7573;1.5758
162;-1.3617;5.1458;0.0000;-0.7324;1.5930
163;-1.0520;5.1452;0.0000;-0.7225;1.5767
164;-0.7423;5.1449;0.0000;-0.7170;1.5501
165;-0.4324;5.1447;0.0000;-0.7379;1.5636
166;-0.1228;5.1445;0.0000;-0.8390;1.6082
167;0.1863;5.1441;0.0000;-0.8969;1.6138
168;0.4955;5.1437;0.0000;-0.8341;1.5401
169;0.8050;5.1433;0.0000;-0.7643;1.4513
170;1.1148;5.1429;0.0000;-0.7034;1.4097
171;1.4246;5.1424;0.0000;-0.6954;1.3832
172;1.7345;5.1421;0.0000;-0.6972;1.3500
173;2.0443;5.1419;0.0000;-0.6779;1.3166
174;2.3537;5.1417;0.0000;-0.6994;1.2971
175;2.6613;5.1416;0.0000;-0.7338;1.3311
176;2.9644;5.1417;0.0000;-0.7735;1.3673
177;3.2599;5.1418;0.0000;-0.7827;1.3614
178;3.5496;5.1433;0.0000;-0.7950;1.3802
179;-4.2690;4.8763;0.0000;-0.8513;1.6354
180;-3.9718;4.8663;0.0000;-0.7889;1.5851
181;-3.6721;4.8635;0.0000;-0.7259;1.5343
182;-3.3678;4.8629;0.0000;-0.6951;1.4910
183;-3.0606;4.8628;0.0000;-0.6862;1.4714
184;-2.7518;4.8629;0.0000;-0.6749;1.5104
185;-2.4423;4.8630;0.0000;-0.6760;1.5948
186;-2.1326;4.8629;0.0000;-0.7575;1.6826
187;-1.8234;4.8627;0.0000;-0.8341;1.7234
188;-1.5141;4.8624;0.0000;-0.7902;1.6793
189;-1.2044;4.8618;0.0000;-0.7107;1.5892
190;-0.8946;4.8615;0.0000;-0.7017;1.5497
191;-0.5848;4.8613;0.0000;-0.7503;1.5456
192;-0.2753;4.8610;0.0000;-0.8229;1.5459
193;0.0340;4.8606;0.0000;-0.8904;1.5512
194;0.3430;4.8603;0.0000;-0.8696;1.5227
195;0.6524;4.8600;0.0000;-0.7954;1.4869
196;0.9620;4.8597;0.0000;-0.7407;1.4675
197;1.2717;4.8593;0.0000;-0.7054;1.4450
198;1.5815;4.8590;0.0000;-0.7067;1.4195
199;1.8912;4.8588;0.0000;-0.7040;1.3888
200;2.2008;4.8587;0.0000;-0.7021;1.3403
201;2.5091;4.8584;0.0000;-0.7477;1.3327
202;2.8135;4.8579;0.0000;-0.7804;1.3647
203;3.1082;4.8579;0.0000;-0.8009;1.3522
204;3.3840;4.8552;0.0000;-0.7934;1.3373
205;3.6216;4.8556;0.0000;-0.7870;1.3639
206;-4.3609;4.6140;0.0000;-0.8787;1.5364
207;-4.1037;4.5876;0.0000;-0.8383;1.5528
208;-3.8173;4.5830;0.0000;-0.7731;1.5500
209;-3.5181;4.5826;0.0000;-0.7263;1.5062
210;-3.2129;4.5830;0.0000;-0.7282;1.4827
211;-2.9052;4.5831;0.0000;-0.7026;1.5049
212;-2.5961;4.5829;0.0000;-0.6725;1.5649
213;-2.2865;4.5825;0.0000;-0.7032;1.6330
214;-1.9770;4.5822;0.0000;-0.7860;1.6744
215;-1.6676;4.5819;0.0000;-0.8281;1.6799
216;-1.3583;4.5818;0.0000;-0.7687;1.6272
217;-1.0486;4.5817;0.0000;-0.7152;1.5610
218;-0.7389;4.5813;0.0000;-0.7788;1.5453
219;-0.4296;4.5811;0.0000;-0.8325;1.5393
220;-0.1203;4.5807;0.0000;-0.8332;1.5112
221;0.1891;4.5803;0.0000;-0.8268;1.4947
222;0.4985;4.5801;0.0000;-0.8034;1.4916
223;0.8080;4.5798;0.0000;-0.7979;1.4834
224;1.1175;4.5794;0.0000;-0.7552;1.4891
225;1.4271;4.5789;0.0000;-0.7123;1.4901
226;1.7368;4.5787;0.0000;-0.7282;1.4634
227;2.0464;4.5787;0.0000;-0.7145;1.4368
228;2.3555;4.5786;0.0000;-0.7497;1.4233
229;2.6622;4.5781;0.0000;-0.7837;1.4125
230;2.9637;4.5777;0.0000;-0.7904;1.4113
231;3.2570;4.5775;0.0000;-0.8048;1.4187
232;3.5471;4.5656;0.0000;-0.8361;1.4380
233;-4.2857;4.3197;0.0000;-0.8867;1.4763
234;-3.9766;4.3062;0.0000;-0.8319;1.5017
235;-3.6723;4.3048;0.0000;-0.7771;1.4908
236;-3.3666;4.3051;0.0000;-0.7608;1.4892
237;-3.0593;4.3054;0.0000;-0.7693;1.5077
238;-2.7507;4.3054;0.0000;-0.7319;1.5237
239;-2.4414;4.3050;0.0000;-0.7038;1.5275
240;-2.1318;4.3046;0.0000;-0.7099;1.5339
241;-1.8222;4.3042;0.0000;-0.7834;1.5669
242;-1.5128;4.3039;0.0000;-0.8178;1.6019
243;-1.2033;4.3038;0.0000;-0.7544;1.6090
244;-0.8937;4.3037;0.0000;-0.7815;1.5905
245;-0.5844;4.3034;0.0000;-0.8261;1.5671
246;-0.2750;4.3032;0.0000;-0.8014;1.5320
247;0.0345;4.3029;0.0000;-0.7856;1.4997
248;0.3440;4.3026;0.0000;-0.7972;1.5117
249;0.6535;4.3023;0.0000;-0.8325;1.5251
250;0.9627;4.3019;0.0000;-0.8290;1.5081
251;1.2721;4.3014;0.0000;-0.7374;1.4922
252;1.5820;4.3011;0.0000;-0.7131;1.4554
253;1.8915;4.3011;0.0000;-0.7409;1.4164
254;2.2008;4.3010;0.0000;-0.7476;1.4334
255;2.5085;4.3006;0.0000;-0.7889;1.4543
256;2.8115;4.3001;0.0000;-0.7735;1.4467
257;3.1028;4.3002;0.0000;-0.7657;1.4485
258;3.3726;4.3000;0.0000;-0.8191;1.4695
259;3.6104;4.2694;0.0000;-0.8954;1.4862
260;-4.3696;4.0330;0.0000;-0.8962;1.5402
261;-4.1118;4.0319;0.0000;-0.8351;1.5352
262;-3.8202;4.0294;0.0000;-0.8050;1.5431
263;-3.5186;4.0291;0.0000;-0.7848;1.5447
264;-3.2127;4.0294;0.0000;-0.8065;1.5577
265;-2.9049;4.0295;0.0000;-0.8134;1.5741
266;-2.5962;4.0292;0.0000;-0.7787;1.5501
267;-2.2868;4.0289;0.0000;-0.7224;1.5339
268;-1.9771;4.0284;0.0000;-0.7344;1.5499
269;-1.6677;4.0279;0.0000;-0.8109;1.5603
270;-1.3584;4.0276;0.0000;-0.7877;1.5731
271;-1.0488;4.0275;0.0000;-0.7720;1.5995
272;-0.7393;4.0272;0.0000;-0.8063;1.5933
273;-0.4299;4.0271;0.0000;-0.7835;1.5643
274;-0.1203;4.0270;0.0000;-0.7651;1.5550
275;0.1892;4.0267;0.0000;-0.7998;1.5541
276;0.4986;4.0262;0.0000;-0.8337;1.5572
277;0.8078;4.0259;0.0000;-0.8525;1.5535
278;1.1171;4.0256;0.0000;-0.8039;1.5091
279;1.4267;4.0252;0.0000;-0.7387;1.4297
280;1.7364;4.0253;0.0000;-0.7466;1.3797
281;2.0458;4.0253;0.0000;-0.7384;1.3911
282;2.3545;4.0249;0.0000;-0.7645;1.4403
283;2.6603;4.0240;0.0000;-0.7851;1.4792
284;2.9586;4.0229;0.0000;-0.7666;1.4858
285;3.2433;4.0228;0.0000;-0.7707;1.4741
286;3.5159;4.0244;0.0000;-0.8623;1.4636
287;-4.2877;3.7505;0.0000;-0.8580;1.6399
288;-3.9775;3.7550;0.0000;-0.8009;1.6232
289;-3.6722;3.7542;0.0000;-0.7874;1.6322
290;-3.3662;3.7541;0.0000;-0.8155;1.6834
291;-3.0588;3.7540;0.0000;-0.8581;1.7090
292;-2.7506;3.7539;0.0000;-0.8489;1.6727
293;-2.4417;3.7538;0.0000;-0.8029;1.6340
294;-2.1323;3.7533;0.0000;-0.7609;1.6151
295;-1.8228;3.7528;0.0000;-0.7645;1.5876
296;-1.5133;3.7525;0.0000;-0.7755;1.5455
297;-1.2037;3.7523;0.0000;-0.7727;1.5456
298;-0.8942;3.7519;0.0000;-0.7787;1.5702
299;-0.5847;3.7519;0.0000;-0.7848;1.5991
300;-0.2752;3.7517;0.0000;-0.7748;1.6487
301;0.0343;3.7514;0.0000;-0.7857;1.6507
302;0.3438;3.7511;0.0000;-0.8144;1.5999
303;0.6531;3.7508;0.0000;-0.8348;1.5663
304;0.9625;3.7505;0.0000;-0.8231;1.5496
305;1.2718;3.7503;0.0000;-0.7963;1.4872
306;1.5813;3.7505;0.0000;-0.7853;1.4431
307;1.8908;3.7505;0.0000;-0.7523;1.4733
308;2.2000;3.7501;0.0000;-0.7518;1.5129
309;2.5076;3.7492;0.0000;-0.7822;1.5439
310;2.8102;3.7475;0.0000;-0.7916;1.5405
311;3.1005;3.7458;0.0000;-0.7791;1.5262
312;3.3696;3.7481;0.0000;-0.7869;1.5243
313;3.6083;3.7827;0.0000;-0.8740;1.4974
314;-4.3611;3.4621;0.0000;-0.8582;1.7151
315;-4.1037;3.4790;0.0000;-0.8242;1.7243
316;-3.8165;3.4797;0.0000;-0.8200;1.7103
317;-3.5170;3.4791;0.0000;-0.8340;1.7340
318;-3.2120;3.4787;0.0000;-0.8733;1.7452
319;-2.9047;3.4787;0.0000;-0.8569;1.7100
320;-2.5962;3.4787;0.0000;-0.8223;1.7025
321;-2.2870;3.4785;0.0000;-0.8023;1.7047
322;-1.9777;3.4781;0.0000;-0.7833;1.6560
323;-1.6681;3.4778;0.0000;-0.7720;1.5791
324;-1.3586;3.4777;0.0000;-0.7801;1.5346
325;-1.0492;3.4774;0.0000;-0.7665;1.5190
326;-0.7395;3.4771;0.0000;-0.7599;1.5443
327;-0.4301;3.4767;0.0000;-0.7899;1.6174
328;-0.1206;3.4763;0.0000;-0.7863;1.6577
329;0.1889;3.4762;0.0000;-0.7889;1.6404
330;0.4984;3.4760;0.0000;-0.8206;1.6098
331;0.8076;3.4758;0.0000;-0.8225;1.5951
332;1.1172;3.4756;0.0000;-0.7894;1.5749
333;1.4267;3.4757;0.0000;-0.8113;1.5888
334;1.7359;3.4757;0.0000;-0.8108;1.6515
335;2.0453;3.4755;0.0000;-0.7887;1.6895
336;2.3539;3.4747;0.0000;-0.8159;1.6845
337;2.6602;3.4733;0.0000;-0.8009;1.6544
338;2.9611;3.4714;0.0000;-0.7865;1.6186
339;3.2537;3.4716;0.0000;-0.7653;1.5880
340;3.5428;3.4898;0.0000;-0.8066;1.5526
341;-4.2667;3.1988;0.0000;-0.8492;1.7765
342;-3.9681;3.2032;0.0000;-0.8504;1.7837
343;-3.6687;3.2037;0.0000;-0.8815;1.7730
344;-3.3651;3.2036;0.0000;-0.8916;1.7433
345;-3.0588;3.2037;0.0000;-0.8574;1.7363
346;-2.7505;3.2039;0.0000;-0.7938;1.7574
347;-2.4415;3.2036;0.0000;-0.7992;1.7767
348;-2.1323;3.2032;0.0000;-0.8175;1.7689
349;-1.8230;3.2031;0.0000;-0.8030;1.7271
350;-1.5135;3.2032;0.0000;-0.7924;1.6888
351;-1.2041;3.2031;0.0000;-0.7841;1.6466
352;-0.8945;3.2028;0.0000;-0.7467;1.5937
353;-0.5849;3.2024;0.0000;-0.7635;1.5667
354;-0.2753;3.2018;0.0000;-0.7754;1.5645
355;0.0342;3.2015;0.0000;-0.7724;1.5942
356;0.3437;3.2014;0.0000;-0.7932;1.6318
357;0.6531;3.2012;0.0000;-0.8366;1.6254
358;0.9624;3.2009;0.0000;-0.8212;1.6061
359;1.2718;3.2009;0.0000;-0.8001;1.6448
360;1.5812;3.2008;0.0000;-0.8552;1.7423
361;1.8904;3.2005;0.0000;-0.8405;1.7957
362;2.1993;3.2000;0.0000;-0.8351;1.7664
363;2.5070;3.1991;0.0000;-0.8165;1.7099
364;2.8111;3.1977;0.0000;-0.7792;1.6554
365;3.1059;3.1967;0.0000;-0.7578;1.5958
366;3.3824;3.2013;0.0000;-0.7492;1.5237
367;3.6195;3.2062;0.0000;-0.7859;1.4895
368;-4.3869;2.9338;0.0000;-0.8086;1.6555
369;-4.1077;2.9293;0.0000;-0.8325;1.6655
370;-3.8165;2.9284;0.0000;-0.8941;1.6888
371;-3.5168;2.9286;0.0000;-0.8984;1.6924
372;-3.2121;2.9287;0.0000;-0.8709;1.7092
373;-2.9048;2.9287;0.0000;-0.7918;1.7772
374;-2.5960;2.9286;0.0000;-0.7714;1.8150
375;-2.2868;2.9283;0.0000;-0.8086;1.7744
376;-1.9776;2.9280;0.0000;-0.8162;1.7547
377;-1.6682;2.9280;0.0000;-0.8066;1.8042
378;-1.3588;2.9281;0.0000;-0.7951;1.8033
379;-1.0494;2.9281;0.0000;-0.7879;1.7199
380;-0.7398;2.9280;0.0000;-0.7705;1.6445
381;-0.4303;2.9277;0.0000;-0.7705;1.5686
382;-0.1207;2.9273;0.0000;-0.7548;1.5160
383;0.1889;2.9269;0.0000;-0.7554;1.5363
384;0.4984;2.9266;0.0000;-0.8060;1.5686
385;0.8077;2.9265;0.0000;-0.8366;1.5561
386;1.1172;2.9264;0.0000;-0.8092;1.5660
387;1.4266;2.9260;0.0000;-0.8577;1.6345
388;1.7356;2.9254;0.0000;-0.9070;1.6801
389;2.0446;2.9252;0.0000;-0.8470;1.6646
390;2.3533;2.9248;0.0000;-0.8048;1.5914
391;2.6602;2.9240;0.0000;-0.7839;1.5030
392;2.9626;2.9233;0.0000;-0.7565;1.4571
393;3.2581;2.9237;0.0000;-0.7566;1.4353
394;3.5475;2.9255;0.0000;-0.7834;1.4200
395;-4.2663;2.6642;0.0000;-0.7970;1.4221
396;-3.9679;2.6549;0.0000;-0.8477;1.4598
397;-3.6686;2.6537;0.0000;-0.8936;1.5294
398;-3.3652;2.6539;0.0000;-0.8590;1.5805
399;-3.0588;2.6539;0.0000;-0.8075;1.6182
400;-2.7504;2.6536;0.0000;-0.7731;1.6634
401;-2.4414;2.6534;0.0000;-0.7876;1.6545
402;-2.1322;2.6534;0.0000;-0.8009;1.5830
403;-1.8228;2.6531;0.0000;-0.7952;1.5605
404;-1.5134;2.6529;0.0000;-0.7877;1.6016
405;-1.2039;2.6531;0.0000;-0.7958;1.5937
406;-0.8946;2.6534;0.0000;-0.7981;1.5303
407;-0.5851;2.6532;0.0000;-0.7945;1.4745
408;-0.2756;2.6532;0.0000;-0.7851;1.4433
409;0.0339;2.6529;0.0000;-0.7491;1.4397
410;0.3436;2.6525;0.0000;-0.7535;1.4659
411;0.6531;2.6523;0.0000;-0.8284;1.5123
412;0.9624;2.6522;0.0000;-0.8478;1.5323
413;1.2717;2.6519;0.0000;-0.8452;1.5045
414;1.5809;2.6513;0.0000;-0.8953;1.4564
415;1.8899;2.6509;0.0000;-0.8749;1.4199
416;2.1989;2.6507;0.0000;-0.7960;1.3729
417;2.5069;2.6506;0.0000;-0.7711;1.3102
418;2.8108;2.6503;0.0000;-0.7521;1.2777
419;3.1051;2.6503;0.0000;-0.7476;1.2872
420;3.3801;2.6470;0.0000;-0.7913;1.3418
421;3.6148;2.6420;0.0000;-0.8353;1.3838
422;-4.3602;2.4058;0.0000;-0.8207;1.3290
423;-4.1030;2.3827;0.0000;-0.8237;1.3601
424;-3.8161;2.3793;0.0000;-0.8504;1.3995
425;-3.5171;2.3793;0.0000;-0.8399;1.4648
426;-3.2124;2.3796;0.0000;-0.8079;1.4910
427;-2.9049;2.3794;0.0000;-0.7897;1.4598
428;-2.5963;2.3791;0.0000;-0.7800;1.4265
429;-2.2870;2.3792;0.0000;-0.7677;1.4027
430;-1.9775;2.3794;0.0000;-0.7627;1.3661
431;-1.6680;2.3791;0.0000;-0.7709;1.3490
432;-1.3585;2.3790;0.0000;-0.7691;1.3769
433;-1.0490;2.3793;0.0000;-0.7754;1.4025
434;-0.7395;2.3796;0.0000;-0.8041;1.4025
435;-0.4301;2.3795;0.0000;-0.8370;1.4213
436;-0.1208;2.3792;0.0000;-0.8146;1.4561
437;0.1887;2.3787;0.0000;-0.7589;1.4886
438;0.4983;2.3782;0.0000;-0.7908;1.5205
439;0.8076;2.3779;0.0000;-0.8478;1.5280
440;1.1169;2.3778;0.0000;-0.8505;1.4856
441;1.4261;2.3777;0.0000;-0.8490;1.4043
442;1.7354;2.3773;0.0000;-0.8508;1.3286
443;2.0446;2.3772;0.0000;-0.8075;1.2727
444;2.3533;2.3773;0.0000;-0.7695;1.2380
445;2.6597;2.3771;0.0000;-0.7553;1.2387
446;2.9604;2.3770;0.0000;-0.7528;1.2667
447;3.2516;2.3764;0.0000;-0.8093;1.3103
448;3.5393;2.3597;0.0000;-0.8618;1.3769
449;-4.2859;2.1168;0.0000;-0.8549;1.5303
450;-3.9766;2.1063;0.0000;-0.8172;1.4687
451;-3.6720;2.1053;0.0000;-0.8010;1.4592
452;-3.3665;2.1053;0.0000;-0.7959;1.4551
453;-3.0593;2.1055;0.0000;-0.7993;1.4216
454;-2.7509;2.1055;0.0000;-0.7842;1.3807
455;-2.4418;2.1054;0.0000;-0.7579;1.3847
456;-2.1324;2.1056;0.0000;-0.7518;1.4332
457;-1.8228;2.1055;0.0000;-0.7486;1.4653
458;-1.5132;2.1052;0.0000;-0.7716;1.4845
459;-1.2037;2.1052;0.0000;-0.7594;1.5308
460;-0.8940;2.1055;0.0000;-0.7527;1.6024
461;-0.5845;2.1054;0.0000;-0.8249;1.6587
462;-0.2753;2.1051;0.0000;-0.8696;1.6576
463;0.0339;2.1047;0.0000;-0.8325;1.6238
464;0.3433;2.1041;0.0000;-0.7918;1.5970
465;0.6528;2.1037;0.0000;-0.8125;1.5542
466;0.9621;2.1036;0.0000;-0.8312;1.5100
467;1.2715;2.1037;0.0000;-0.8212;1.4733
468;1.5809;2.1037;0.0000;-0.8014;1.4248
469;1.8903;2.1036;0.0000;-0.7902;1.4020
470;2.1994;2.1037;0.0000;-0.7696;1.4230
471;2.5069;2.1037;0.0000;-0.7741;1.4545
472;2.8094;2.1032;0.0000;-0.7804;1.4739
473;3.0994;2.1029;0.0000;-0.8226;1.4978
474;3.3670;2.1024;0.0000;-0.8586;1.5141
475;3.6045;2.0656;0.0000;-0.8864;1.5319
476;-4.3698;1.8370;0.0000;-0.8562;1.6425
477;-4.1116;1.8325;0.0000;-0.8375;1.5985
478;-3.8202;1.8319;0.0000;-0.7917;1.5486
479;-3.5187;1.8315;0.0000;-0.7710;1.5113
480;-3.2129;1.8316;0.0000;-0.7916;1.5041
481;-2.9052;1.8316;0.0000;-0.7954;1.5225
482;-2.5964;1.8315;0.0000;-0.7684;1.5759
483;-2.2870;1.8313;0.0000;-0.7573;1.6327
484;-1.9776;1.8312;0.0000;-0.7439;1.6774
485;-1.6680;1.8309;0.0000;-0.7682;1.7157
486;-1.3586;1.8306;0.0000;-0.8086;1.7427
487;-1.0492;1.8306;0.0000;-0.7633;1.7878
488;-0.7395;1.8304;0.0000;-0.7535;1.8101
489;-0.4300;1.8301;0.0000;-0.8266;1.7879
490;-0.1208;1.8300;0.0000;-0.8654;1.7320
491;0.1884;1.8297;0.0000;-0.8361;1.6372
492;0.4978;1.8293;0.0000;-0.7902;1.5428
493;0.8074;1.8293;0.0000;-0.7982;1.5141
494;1.1168;1.8294;0.0000;-0.8078;1.5379
495;1.4262;1.8295;0.0000;-0.7711;1.5403
496;1.7358;1.8295;0.0000;-0.7565;1.5558
497;2.0452;1.8293;0.0000;-0.7642;1.6168
498;2.3539;1.8292;0.0000;-0.7793;1.6956
499;2.6595;1.8285;0.0000;-0.8034;1.7520
500;2.9573;1.8273;0.0000;-0.8360;1.7367
501;3.2407;1.8266;0.0000;-0.8654;1.6976
502;3.5093;1.8304;0.0000;-0.8811;1.6692
503;-4.2861;1.5493;0.0000;-0.8439;1.5921
504;-3.9768;1.5576;0.0000;-0.8227;1.6085
505;-3.6723;1.5577;0.0000;-0.7927;1.5985
506;-3.3667;1.5573;0.0000;-0.7906;1.5910
507;-3.0594;1.5572;0.0000;-0.7869;1.6090
508;-2.7510;1.5569;0.0000;-0.7892;1.6562
509;-2.4420;1.5564;0.0000;-0.7859;1.7164
510;-2.1326;1.5564;0.0000;-0.7404;1.7507
511;-1.8229;1.5560;0.0000;-0.7264;1.7529
512;-1.5133;1.5556;0.0000;-0.8110;1.7589
513;-1.2041;1.5554;0.0000;-0.8398;1.7800
514;-0.8948;1.5554;0.0000;-0.7649;1.7753
515;-0.5851;1.5553;0.0000;-0.7456;1.7343
516;-0.2755;1.5552;0.0000;-0.7961;1.6904
517;0.0339;1.5552;0.0000;-0.8292;1.6218
518;0.3432;1.5552;0.0000;-0.8062;1.5166
519;0.6527;1.5552;0.0000;-0.7872;1.4773
520;0.9621;1.5551;0.0000;-0.7968;1.5060
521;1.2716;1.5551;0.0000;-0.7657;1.5339
522;1.5812;1.5551;0.0000;-0.7551;1.5704
523;1.8908;1.5547;0.0000;-0.7790;1.6159
524;2.1998;1.5544;0.0000;-0.7913;1.6733
525;2.5072;1.5536;0.0000;-0.8012;1.7247
526;2.8098;1.5521;0.0000;-0.8174;1.7405
527;3.1007;1.5505;0.0000;-0.8500;1.7113
528;3.3714;1.5526;0.0000;-0.8657;1.6571
529;3.6115;1.6018;0.0000;-0.8923;1.6343
530;-4.3593;1.2565;0.0000;-0.8325;1.6280
531;-4.1032;1.2804;0.0000;-0.8421;1.6472
532;-3.8166;1.2833;0.0000;-0.8189;1.6263
533;-3.5176;1.2830;0.0000;-0.8190;1.6013
534;-3.2129;1.2828;0.0000;-0.7864;1.6010
535;-2.9053;1.2826;0.0000;-0.7585;1.6138
536;-2.5965;1.2820;0.0000;-0.8174;1.6280
537;-2.2875;1.2816;0.0000;-0.7898;1.6554
538;-1.9780;1.2814;0.0000;-0.7208;1.6609
539;-1.6684;1.2811;0.0000;-0.7709;1.6305
540;-1.3590;1.2807;0.0000;-0.8347;1.6088
541;-1.0497;1.2806;0.0000;-0.8026;1.5924
542;-0.7402;1.2806;0.0000;-0.7289;1.5678
543;-0.4304;1.2806;0.0000;-0.7295;1.5429
544;-0.1208;1.2807;0.0000;-0.7718;1.5291
545;0.1887;1.2809;0.0000;-0.7864;1.4991
546;0.4982;1.2811;0.0000;-0.7873;1.4589
547;0.8077;1.2810;0.0000;-0.8027;1.4396
548;1.1171;1.2809;0.0000;-0.7737;1.4502
549;1.4267;1.2809;0.0000;-0.7794;1.4775
550;1.7361;1.2806;0.0000;-0.8094;1.4721
551;2.0453;1.2802;0.0000;-0.7920;1.4525
552;2.3540;1.2795;0.0000;-0.7905;1.4545
553;2.6605;1.2782;0.0000;-0.7965;1.4585
554;2.9615;1.2762;0.0000;-0.8295;1.4889
555;3.2540;1.2771;0.0000;-0.8705;1.5071
556;3.5434;1.2957;0.0000;-0.8650;1.4929
557;-4.2664;0.9964;0.0000;-0.8315;1.6168
558;-3.9687;1.0065;0.0000;-0.8401;1.5967
559;-3.6695;1.0081;0.0000;-0.8258;1.5304
560;-3.3660;1.0083;0.0000;-0.8080;1.4753
561;-3.0594;1.0082;0.0000;-0.7556;1.4853
562;-2.7510;1.0079;0.0000;-0.8005;1.5049
563;-2.4423;1.0073;0.0000;-0.8378;1.5154
564;-2.1330;1.0070;0.0000;-0.7417;1.5381
565;-1.8233;1.0069;0.0000;-0.7355;1.5397
566;-1.5139;1.0066;0.0000;-0.8012;1.4983
567;-1.2045;1.0065;0.0000;-0.7874;1.4167
568;-0.8949;1.0065;0.0000;-0.7343;1.3513
569;-0.5852;1.0066;0.0000;-0.7190;1.3358
570;-0.2755;1.0066;0.0000;-0.7431;1.3321
571;0.0340;1.0067;0.0000;-0.7796;1.3502
572;0.3435;1.0070;0.0000;-0.7846;1.3943
573;0.6530;1.0071;0.0000;-0.7954;1.4030
574;0.9624;1.0071;0.0000;-0.7820;1.3969
575;1.2720;1.0068;0.0000;-0.7781;1.4170
576;1.5814;1.0068;0.0000;-0.8230;1.4006
577;1.8906;1.0066;0.0000;-0.8046;1.3540
578;2.1998;1.0062;0.0000;-0.7839;1.3182
579;2.5079;1.0052;0.0000;-0.7802;1.2960
580;2.8123;1.0031;0.0000;-0.7882;1.3136
581;3.1069;1.0007;0.0000;-0.8407;1.3572
582;3.3807;1.0067;0.0000;-0.8909;1.3897
583;3.6169;1.0187;0.0000;-0.8517;1.3960
584;-4.3874;0.7251;0.0000;-0.8316;1.5084
585;-4.1085;0.7316;0.0000;-0.8339;1.4878
586;-3.8175;0.7333;0.0000;-0.8349;1.4810
587;-3.5179;0.7342;0.0000;-0.8219;1.4462
588;-3.2131;0.7344;0.0000;-0.7902;1.4193
589;-2.9056;0.7341;0.0000;-0.7729;1.4380
590;-2.5970;0.7336;0.0000;-0.8361;1.4527
591;-2.2880;0.7330;0.0000;-0.7896;1.4341
592;-1.9785;0.7327;0.0000;-0.7115;1.4223
593;-1.6688;0.7326;0.0000;-0.7612;1.4132
594;-1.3594;0.7325;0.0000;-0.7703;1.3649
595;-1.0497;0.7329;0.0000;-0.7170;1.2875
596;-0.7399;0.7331;0.0000;-0.7130;1.2467
597;-0.4303;0.7331;0.0000;-0.7228;1.2385
598;-0.1206;0.7332;0.0000;-0.7650;1.2424
599;0.1888;0.7332;0.0000;-0.8098;1.2825
600;0.4982;0.7332;0.0000;-0.8036;1.3380
601;0.8077;0.7332;0.0000;-0.7940;1.3687
602;1.1172;0.7330;0.0000;-0.7689;1.3712
603;1.4267;0.7329;0.0000;-0.7754;1.3647
604;1.7361;0.7329;0.0000;-0.7924;1.3484
605;2.0455;0.7327;0.0000;-0.7968;1.3228
606;2.3546;0.7321;0.0000;-0.7868;1.2905
607;2.6626;0.7303;0.0000;-0.7705;1.2772
608;2.9676;0.7265;0.0000;-0.8086;1.3056
609;3.2661;0.7236;0.0000;-0.8666;1.3539
610;3.5527;0.7325;0.0000;-0.8805;1.3876
611;-4.2674;0.4629;0.0000;-0.8541;1.4758
612;-3.9693;0.4590;0.0000;-0.8383;1.5032
613;-3.6701;0.4595;0.0000;-0.8314;1.5334
614;-3.3665;0.4601;0.0000;-0.8129;1.5393
615;-3.0600;0.4601;0.0000;-0.7920;1.5001
616;-2.7517;0.4597;0.0000;-0.7882;1.4377
617;-2.4428;0.4592;0.0000;-0.7910;1.3699
618;-2.1334;0.4590;0.0000;-0.7260;1.3139
619;-1.8237;0.4589;0.0000;-0.7224;1.2995
620;-1.5142;0.4587;0.0000;-0.7644;1.2900
621;-1.2047;0.4590;0.0000;-0.7225;1.2774
622;-0.8949;0.4595;0.0000;-0.7066;1.2750
623;-0.5852;0.4596;0.0000;-0.7251;1.2671
624;-0.2754;0.4597;0.0000;-0.7315;1.2785
625;0.0341;0.4597;0.0000;-0.7956;1.3199
626;0.3435;0.4596;0.0000;-0.8101;1.3504
627;0.6529;0.4595;0.0000;-0.8063;1.3649
628;0.9623;0.4593;0.0000;-0.7866;1.3787
629;1.2719;0.4592;0.0000;-0.7409;1.3676
630;1.5816;0.4591;0.0000;-0.7426;1.3482
631;1.8911;0.4591;0.0000;-0.7963;1.3384
632;2.2005;0.4589;0.0000;-0.8128;1.3219
633;2.5101;0.4581;0.0000;-0.7700;1.2993
634;2.8207;0.4559;0.0000;-0.7928;1.2938
635;3.1342;0.4527;0.0000;-0.8317;1.3111
636;3.4575;0.4606;0.0000;-0.8586;1.3239
637;-4.3623;0.2000;0.0000;-0.8783;1.5601
638;-4.1049;0.1844;0.0000;-0.8394;1.5485
639;-3.8177;0.1841;0.0000;-0.8390;1.5539
640;-3.5185;0.1851;0.0000;-0.8318;1.5484
641;-3.2137;0.1857;0.0000;-0.8293;1.4902
642;-2.9063;0.1858;0.0000;-0.7919;1.3906
643;-2.5975;0.1857;0.0000;-0.7552;1.2881
644;-2.2882;0.1855;0.0000;-0.7246;1.2366
645;-1.9786;0.1854;0.0000;-0.6988;1.2233
646;-1.6689;0.1852;0.0000;-0.7201;1.2033
647;-1.3592;0.1853;0.0000;-0.7207;1.2092
648;-1.0495;0.1857;0.0000;-0.7102;1.2629
649;-0.7399;0.1859;0.0000;-0.7505;1.3099
650;-0.4303;0.1860;0.0000;-0.7538;1.3242
651;-0.1207;0.1859;0.0000;-0.7612;1.3502
652;0.1888;0.1857;0.0000;-0.7738;1.3909
653;0.4984;0.1856;0.0000;-0.7746;1.4199
654;0.8079;0.1855;0.0000;-0.8059;1.4496
655;1.1173;0.1852;0.0000;-0.7944;1.4581
656;1.4268;0.1853;0.0000;-0.7439;1.4452
657;1.7365;0.1853;0.0000;-0.7373;1.4328
658;2.0461;0.1852;0.0000;-0.8108;1.4355
659;2.3556;0.1849;0.0000;-0.8192;1.4589
660;2.6658;0.1841;0.0000;-0.7858;1.4544
661;2.9776;0.1825;0.0000;-0.7985;1.4058
662;3.2905;0.1827;0.0000;-0.7929;1.3644
663;3.5901;0.2028;0.0000;-0.8308;1.3633
664;-4.2880;-0.0859;0.0000;-0.8454;1.5098
665;-3.9779;-0.0901;0.0000;-0.8331;1.4688
666;-3.6732;-0.0893;0.0000;-0.8419;1.4318
667;-3.3677;-0.0885;0.0000;-0.8521;1.4173
668;-3.0607;-0.0880;0.0000;-0.8330;1.3942
669;-2.7523;-0.0878;0.0000;-0.7712;1.3349
670;-2.4431;-0.0878;0.0000;-0.7285;1.2550
671;-2.1335;-0.0879;0.0000;-0.7049;1.1763
672;-1.8238;-0.0880;0.0000;-0.6806;1.1206
673;-1.5140;-0.0880;0.0000;-0.6824;1.1237
674;-1.2042;-0.0879;0.0000;-0.6851;1.2044
675;-0.8944;-0.0878;0.0000;-0.7345;1.2972
676;-0.5849;-0.0878;0.0000;-0.7833;1.3346
677;-0.2754;-0.0878;0.0000;-0.7736;1.3261
678;0.0341;-0.0881;0.0000;-0.7623;1.3220
679;0.3438;-0.0883;0.0000;-0.7485;1.3706
680;0.6534;-0.0885;0.0000;-0.7809;1.4639
681;0.9628;-0.0889;0.0000;-0.8281;1.5323
682;1.2720;-0.0890;0.0000;-0.8086;1.5593
683;1.5815;-0.0890;0.0000;-0.7360;1.5597
684;1.8914;-0.0889;0.0000;-0.7628;1.5564
685;2.2010;-0.0891;0.0000;-0.8417;1.5873
686;2.5111;-0.0895;0.0000;-0.8182;1.6271
687;2.8234;-0.0898;0.0000;-0.7846;1.6036
688;3.1409;-0.0899;0.0000;-0.7643;1.5230
689;3.4688;-0.0913;0.0000;-0.7754;1.4860
690;-4.3665;-0.3673;0.0000;-0.8242;1.3096
691;-4.1107;-0.3649;0.0000;-0.8224;1.3318
692;-3.8201;-0.3626;0.0000;-0.8031;1.3236
693;-3.5192;-0.3622;0.0000;-0.8283;1.3356
694;-3.2139;-0.3620;0.0000;-0.8401;1.3908
695;-2.9063;-0.3618;0.0000;-0.8059;1.4150
696;-2.5976;-0.3616;0.0000;-0.7844;1.3808
697;-2.2884;-0.3613;0.0000;-0.7614;1.3062
698;-1.9789;-0.3610;0.0000;-0.6943;1.2364
699;-1.6690;-0.3610;0.0000;-0.6425;1.1984
700;-1.3590;-0.3612;0.0000;-0.6519;1.2065
701;-1.0491;-0.3614;0.0000;-0.6883;1.2796
702;-0.7394;-0.3616;0.0000;-0.7493;1.3338
703;-0.4299;-0.3615;0.0000;-0.7796;1.3509
704;-0.1205;-0.3615;0.0000;-0.7868;1.3639
705;0.1890;-0.3618;0.0000;-0.7813;1.3933
706;0.4986;-0.3623;0.0000;-0.7728;1.4775
707;0.8081;-0.3630;0.0000;-0.8049;1.5536
708;1.1175;-0.3634;0.0000;-0.7976;1.5886
709;1.4270;-0.3635;0.0000;-0.7604;1.6094
710;1.7366;-0.3633;0.0000;-0.7872;1.6382
711;2.0459;-0.3635;0.0000;-0.8503;1.6661
712;2.3556;-0.3638;0.0000;-0.8237;1.6769
713;2.6663;-0.3639;0.0000;-0.7768;1.6883
714;2.9782;-0.3635;0.0000;-0.7789;1.6529
715;3.2895;-0.3636;0.0000;-0.7633;1.5883
716;3.5891;-0.3879;0.0000;-0.7832;1.5379
717;-4.2839;-0.6507;0.0000;-0.8301;1.2438
718;-3.9753;-0.6359;0.0000;-0.7873;1.3072
719;-3.6719;-0.6354;0.0000;-0.7654;1.3619
720;-3.3669;-0.6356;0.0000;-0.7985;1.3944
721;-3.0600;-0.6358;0.0000;-0.8070;1.4162
722;-2.7517;-0.6357;0.0000;-0.8140;1.4384
723;-2.4428;-0.6354;0.0000;-0.8115;1.4538
724;-2.1336;-0.6350;0.0000;-0.7535;1.4649
725;-1.8239;-0.6348;0.0000;-0.6741;1.4543
726;-1.5140;-0.6347;0.0000;-0.6550;1.4149
727;-1.2041;-0.6349;0.0000;-0.6774;1.3842
728;-0.8943;-0.6353;0.0000;-0.6887;1.3785
729;-0.5846;-0.6353;0.0000;-0.7182;1.3958
730;-0.2749;-0.6354;0.0000;-0.7682;1.4522
731;0.0345;-0.6357;0.0000;-0.8222;1.5053
732;0.3438;-0.6363;0.0000;-0.8123;1.5340
733;0.6533;-0.6371;0.0000;-0.7892;1.5465
734;0.9627;-0.6377;0.0000;-0.7903;1.5371
735;1.2723;-0.6379;0.0000;-0.7577;1.5466
736;1.5820;-0.6380;0.0000;-0.7678;1.6170
737;1.8914;-0.6381;0.0000;-0.8442;1.6813
738;2.2008;-0.6383;0.0000;-0.8370;1.6746
739;2.5110;-0.6385;0.0000;-0.7797;1.6442
740;2.8226;-0.6384;0.0000;-0.7744;1.6169
741;3.1366;-0.6386;0.0000;-0.7881;1.5886
742;3.4558;-0.6422;0.0000;-0.7884;1.5552
743;-4.3574;-0.9440;0.0000;-0.8513;1.3516
744;-4.0992;-0.9098;0.0000;-0.7940;1.3656
745;-3.8147;-0.9090;0.0000;-0.7415;1.4309
746;-3.5170;-0.9095;0.0000;-0.7447;1.4708
747;-3.2128;-0.9097;0.0000;-0.7708;1.4698
748;-2.9055;-0.9098;0.0000;-0.7988;1.5010
749;-2.5970;-0.9097;0.0000;-0.8237;1.5670
750;-2.2881;-0.9095;0.0000;-0.8011;1.6129
751;-1.9786;-0.9093;0.0000;-0.7329;1.6162
752;-1.6690;-0.9091;0.0000;-0.6985;1.5888
753;-1.3592;-0.9090;0.0000;-0.6980;1.5543
754;-1.0494;-0.9091;0.0000;-0.6603;1.5134
755;-0.7395;-0.9093;0.0000;-0.6655;1.4920
756;-0.4296;-0.9095;0.0000;-0.7259;1.5078
757;-0.1200;-0.9098;0.0000;-0.7922;1.5412
758;0.1893;-0.9103;0.0000;-0.8392;1.5683
759;0.4986;-0.9110;0.0000;-0.7951;1.5595
760;0.8082;-0.9117;0.0000;-0.7736;1.5145
761;1.1176;-0.9120;0.0000;-0.7903;1.4920
762;1.4271;-0.9123;0.0000;-0.7808;1.5270
763;1.7366;-0.9127;0.0000;-0.7891;1.5756
764;2.0461;-0.9129;0.0000;-0.8053;1.5930
765;2.3559;-0.9130;0.0000;-0.7615;1.5641
766;2.6661;-0.9130;0.0000;-0.7418;1.5096
767;2.9762;-0.9134;0.0000;-0.7889;1.5038
768;3.2823;-0.9175;0.0000;-0.8244;1.5396
769;3.5669;-0.9007;0.0000;-0.8384;1.5398
770;-4.2537;-1.1832;0.0000;-0.8261;1.5206
771;-3.9628;-1.1842;0.0000;-0.7468;1.5315
772;-3.6673;-1.1844;0.0000;-0.7142;1.5259
773;-3.3651;-1.1842;0.0000;-0.7283;1.5230
774;-3.0591;-1.1841;0.0000;-0.7673;1.5733
775;-2.7512;-1.1843;0.0000;-0.7937;1.6585
776;-2.4423;-1.1843;0.0000;-0.7971;1.7217
777;-2.1330;-1.1841;0.0000;-0.7600;1.7214
778;-1.8235;-1.1838;0.0000;-0.7380;1.7041
779;-1.5139;-1.1835;0.0000;-0.7318;1.7401
780;-1.2043;-1.1834;0.0000;-0.6975;1.7624
781;-0.8944;-1.1836;0.0000;-0.6696;1.7209
782;-0.5846;-1.1837;0.0000;-0.7292;1.6879
783;-0.2751;-1.1840;0.0000;-0.7744;1.6564
784;0.0345;-1.1844;0.0000;-0.7951;1.6386
785;0.3439;-1.1851;0.0000;-0.8019;1.6244
786;0.6534;-1.1857;0.0000;-0.7575;1.5566
787;0.9630;-1.1860;0.0000;-0.7711;1.5044
788;1.2725;-1.1863;0.0000;-0.8034;1.5029
789;1.5818;-1.1867;0.0000;-0.7778;1.4905
790;1.8915;-1.1870;0.0000;-0.7609;1.4594
791;2.2014;-1.1872;0.0000;-0.7299;1.4402
792;2.5120;-1.1871;0.0000;-0.7042;1.4273
793;2.8247;-1.1868;0.0000;-0.7569;1.4586
794;3.1428;-1.1877;0.0000;-0.8472;1.5403
795;3.4787;-1.1918;0.0000;-0.9001;1.6217
796;-4.3565;-1.4210;0.0000;-0.8214;1.6062
797;-4.0981;-1.4582;0.0000;-0.7509;1.5755
798;-3.8139;-1.4602;0.0000;-0.7287;1.5573
799;-3.5165;-1.4592;0.0000;-0.7066;1.5465
800;-3.2124;-1.4587;0.0000;-0.7283;1.5659
801;-2.9051;-1.4589;0.0000;-0.7700;1.6106
802;-2.5967;-1.4592;0.0000;-0.7833;1.6335
803;-2.2876;-1.4592;0.0000;-0.7546;1.6457
804;-1.9780;-1.4588;0.0000;-0.7238;1.6878
805;-1.6684;-1.4586;0.0000;-0.7223;1.7822
806;-1.3587;-1.4588;0.0000;-0.7448;1.8647
807;-1.0491;-1.4589;0.0000;-0.7179;1.8477
808;-0.7394;-1.4587;0.0000;-0.7286;1.8169
809;-0.4298;-1.4589;0.0000;-0.7903;1.8221
810;-0.1205;-1.4589;0.0000;-0.8128;1.8024
811;0.1890;-1.4595;0.0000;-0.7974;1.7271
812;0.4985;-1.4599;0.0000;-0.7683;1.6182
813;0.8081;-1.4601;0.0000;-0.7388;1.5520
814;1.1177;-1.4604;0.0000;-0.7554;1.5279
815;1.4273;-1.4607;0.0000;-0.7569;1.4828
816;1.7369;-1.4609;0.0000;-0.7472;1.4328
817;2.0465;-1.4610;0.0000;-0.7404;1.4136
818;2.3565;-1.4609;0.0000;-0.7033;1.4253
819;2.6667;-1.4607;0.0000;-0.7204;1.4657
820;2.9763;-1.4604;0.0000;-0.8002;1.5280
821;3.2816;-1.4606;0.0000;-0.8903;1.6147
822;3.5632;-1.4836;0.0000;-0.9602;1.6693
823;-4.2840;-1.7153;0.0000;-0.7636;1.5650
824;-3.9748;-1.7332;0.0000;-0.7060;1.5258
825;-3.6714;-1.7341;0.0000;-0.7094;1.5350
826;-3.3665;-1.7333;0.0000;-0.7270;1.5732
827;-3.0595;-1.7332;0.0000;-0.7371;1.5457
828;-2.7511;-1.7335;0.0000;-0.7370;1.4891
829;-2.4419;-1.7335;0.0000;-0.7327;1.4752
830;-2.1325;-1.7334;0.0000;-0.7338;1.5285
831;-1.8230;-1.7334;0.0000;-0.7363;1.5910
832;-1.5132;-1.7338;0.0000;-0.7414;1.6057
833;-1.2038;-1.7339;0.0000;-0.7511;1.6433
834;-0.8942;-1.7337;0.0000;-0.7506;1.7268
835;-0.5845;-1.7338;0.0000;-0.7710;1.7804
836;-0.2751;-1.7341;0.0000;-0.8255;1.8106
837;0.0342;-1.7344;0.0000;-0.8076;1.7745
838;0.3437;-1.7345;0.0000;-0.7793;1.6656
839;0.6532;-1.7345;0.0000;-0.7379;1.5990
840;0.9629;-1.7346;0.0000;-0.7113;1.5681
841;1.2727;-1.7348;0.0000;-0.7196;1.5158
842;1.5824;-1.7348;0.0000;-0.7253;1.4658
843;1.8921;-1.7350;0.0000;-0.7544;1.4460
844;2.2018;-1.7351;0.0000;-0.7480;1.4576
845;2.5119;-1.7351;0.0000;-0.7349;1.4904
846;2.8227;-1.7350;0.0000;-0.7640;1.5338
847;3.1352;-1.7352;0.0000;-0.8455;1.5809
848;3.4537;-1.7415;0.0000;-0.9401;1.6027
849;-4.3669;-1.9994;0.0000;-0.7855;1.6041
850;-4.1113;-2.0033;0.0000;-0.6919;1.5925
851;-3.8202;-2.0075;0.0000;-0.6806;1.5592
852;-3.5190;-2.0078;0.0000;-0.7190;1.5679
853;-3.2134;-2.0075;0.0000;-0.7398;1.5647
854;-2.9055;-2.0074;0.0000;-0.7069;1.5236
855;-2.5965;-2.0074;0.0000;-0.6942;1.5230
856;-2.2870;-2.0075;0.0000;-0.7146;1.5797
857;-1.9775;-2.0076;0.0000;-0.7622;1.6046
858;-1.6681;-2.0076;0.0000;-0.7578;1.5488
859;-1.3585;-2.0078;0.0000;-0.7240;1.5213
860;-1.0487;-2.0083;0.0000;-0.7575;1.6005
861;-0.7394;-2.0086;0.0000;-0.8188;1.6742
862;-0.4300;-2.0088;0.0000;-0.8176;1.6937
863;-0.1206;-2.0091;0.0000;-0.7899;1.6803
864;0.1890;-2.0091;0.0000;-0.7653;1.6308
865;0.4986;-2.0089;0.0000;-0.7540;1.5855
866;0.8082;-2.0090;0.0000;-0.7044;1.5617
867;1.1181;-2.0090;0.0000;-0.6825;1.5206
868;1.4279;-2.0090;0.0000;-0.7152;1.4825
869;1.7375;-2.0090;0.0000;-0.7633;1.4695
870;2.0470;-2.0091;0.0000;-0.7884;1.4576
871;2.3567;-2.0092;0.0000;-0.7529;1.4682
872;2.6667;-2.0094;0.0000;-0.7519;1.5119
873;2.9762;-2.0094;0.0000;-0.8099;1.5640
874;3.2835;-2.0084;0.0000;-0.8953;1.5823
875;3.5869;-2.0035;0.0000;-0.9070;1.5954
876;-4.2881;-2.2819;0.0000;-0.7618;1.5940
877;-3.9784;-2.2799;0.0000;-0.6574;1.5746
878;-3.6732;-2.2814;0.0000;-0.6718;1.5638
879;-3.3673;-2.2817;0.0000;-0.7348;1.5488
880;-3.0599;-2.2817;0.0000;-0.7329;1.5519
881;-2.7512;-2.2818;0.0000;-0.6994;1.5949
882;-2.4419;-2.2821;0.0000;-0.7018;1.6580
883;-2.1323;-2.2824;0.0000;-0.7224;1.7046
884;-1.8227;-2.2823;0.0000;-0.7531;1.7048
885;-1.5132;-2.2822;0.0000;-0.7438;1.6628
886;-1.2035;-2.2825;0.0000;-0.7275;1.6288
887;-0.8939;-2.2830;0.0000;-0.8002;1.6253
888;-0.5847;-2.2833;0.0000;-0.8431;1.6295
889;-0.2753;-2.2836;0.0000;-0.8076;1.6135
890;0.0342;-2.2836;0.0000;-0.7623;1.5876
891;0.3438;-2.2834;0.0000;-0.7482;1.5554
892;0.6534;-2.2833;0.0000;-0.7281;1.5135
893;0.9631;-2.2833;0.0000;-0.6942;1.4545
894;1.2730;-2.2831;0.0000;-0.6925;1.4057
895;1.5827;-2.2831;0.0000;-0.7471;1.4104
896;1.8923;-2.2832;0.0000;-0.7934;1.4358
897;2.2018;-2.2833;0.0000;-0.7877;1.4375
898;2.5117;-2.2835;0.0000;-0.7507;1.4361
899;2.8224;-2.2839;0.0000;-0.7524;1.4585
900;3.1341;-2.2828;0.0000;-0.8398;1.4874
901;3.4518;-2.2715;0.0000;-0.8819;1.5187
902;-4.3619;-2.5670;0.0000;-0.7502;1.3949
903;-4.1049;-2.5541;0.0000;-0.6764;1.4208
904;-3.8180;-2.5547;0.0000;-0.6839;1.4602
905;-3.5184;-2.5556;0.0000;-0.7209;1.4841
906;-3.2133;-2.5559;0.0000;-0.7395;1.4921
907;-2.9056;-2.5560;0.0000;-0.7196;1.4978
908;-2.5966;-2.5565;0.0000;-0.7211;1.4984
909;-2.2873;-2.5569;0.0000;-0.7290;1.5154
910;-1.9778;-2.5572;0.0000;-0.7099;1.5463
911;-1.6680;-2.5570;0.0000;-0.7336;1.5866
912;-1.3584;-2.5569;0.0000;-0.7503;1.6072
913;-1.0489;-2.5573;0.0000;-0.7462;1.5821
914;-0.7393;-2.5577;0.0000;-0.7885;1.5608
915;-0.4299;-2.5579;0.0000;-0.8116;1.5506
916;-0.1205;-2.5581;0.0000;-0.7903;1.5265
917;0.1890;-2.5579;0.0000;-0.7534;1.5010
918;0.4987;-2.5575;0.0000;-0.7218;1.4877
919;0.8084;-2.5574;0.0000;-0.7235;1.4526
920;1.1181;-2.5570;0.0000;-0.7233;1.4127
921;1.4277;-2.5568;0.0000;-0.7502;1.4067
922;1.7373;-2.5570;0.0000;-0.7722;1.4061
923;2.0469;-2.5572;0.0000;-0.7781;1.4045
924;2.3566;-2.5574;0.0000;-0.7722;1.3956
925;2.6662;-2.5579;0.0000;-0.7331;1.3802
926;2.9752;-2.5586;0.0000;-0.7517;1.3666
927;3.2782;-2.5551;0.0000;-0.8521;1.3564
928;3.5582;-2.5251;0.0000;-0.8484;1.3543
929;-4.2676;-2.8308;0.0000;-0.7032;1.2697
930;-3.9697;-2.8292;0.0000;-0.6915;1.3253
931;-3.6702;-2.8297;0.0000;-0.7281;1.3856
932;-3.3665;-2.8299;0.0000;-0.7269;1.4008
933;-3.0596;-2.8300;0.0000;-0.7233;1.4115
934;-2.7513;-2.8302;0.0000;-0.7363;1.3812
935;-2.4422;-2.8305;0.0000;-0.7501;1.3171
936;-2.1328;-2.8309;0.0000;-0.7272;1.2843
937;-1.8231;-2.8310;0.0000;-0.7155;1.3286
938;-1.5135;-2.8312;0.0000;-0.7512;1.4367
939;-1.2039;-2.8315;0.0000;-0.7401;1.4941
940;-0.8942;-2.8317;0.0000;-0.7231;1.4821
941;-0.5846;-2.8320;0.0000;-0.7563;1.4779
942;-0.2750;-2.8322;0.0000;-0.7768;1.4723
943;0.0346;-2.8321;0.0000;-0.7691;1.4513
944;0.3441;-2.8317;0.0000;-0.7382;1.4416
945;0.6537;-2.8316;0.0000;-0.7370;1.4445
946;0.9634;-2.8313;0.0000;-0.7306;1.4607
947;1.2731;-2.8310;0.0000;-0.7415;1.4658
948;1.5825;-2.8310;0.0000;-0.7945;1.4491
949;1.8920;-2.8311;0.0000;-0.7973;1.4206
950;2.2017;-2.8312;0.0000;-0.7732;1.3855
951;2.5122;-2.8315;0.0000;-0.7448;1.3567
952;2.8248;-2.8320;0.0000;-0.7179;1.3244
953;3.1427;-2.8318;0.0000;-0.7758;1.2850
954;3.4741;-2.8191;0.0000;-0.8081;1.2529
955;-4.3864;-3.0924;0.0000;-0.7368;1.3404
956;-4.1088;-3.1006;0.0000;-0.7036;1.3934
957;-3.8180;-3.1033;0.0000;-0.7244;1.4406
958;-3.5183;-3.1037;0.0000;-0.7255;1.4487
959;-3.2132;-3.1038;0.0000;-0.6847;1.4232
960;-2.9056;-3.1040;0.0000;-0.7186;1.4010
961;-2.5968;-3.1041;0.0000;-0.7534;1.3607
962;-2.2875;-3.1042;0.0000;-0.7588;1.2969
963;-1.9781;-3.1044;0.0000;-0.7282;1.2752
964;-1.6684;-3.1047;0.0000;-0.7361;1.3251
965;-1.3588;-3.1053;0.0000;-0.7409;1.3846
966;-1.0492;-3.1057;0.0000;-0.7122;1.4294
967;-0.7394;-3.1059;0.0000;-0.7289;1.4567
968;-0.4298;-3.1062;0.0000;-0.7664;1.4394
969;-0.1203;-3.1062;0.0000;-0.7563;1.4177
970;0.1893;-3.1060;0.0000;-0.7324;1.4401
971;0.4991;-3.1056;0.0000;-0.7458;1.4575
972;0.8085;-3.1055;0.0000;-0.7571;1.4483
973;1.1182;-3.1052;0.0000;-0.7087;1.4482
974;1.4281;-3.1050;0.0000;-0.7391;1.4476
975;1.7376;-3.1051;0.0000;-0.8130;1.4208
976;2.0469;-3.1051;0.0000;-0.8147;1.3697
977;2.3567;-3.1050;0.0000;-0.7702;1.3129
978;2.6672;-3.1051;0.0000;-0.7174;1.2664
979;2.9789;-3.1051;0.0000;-0.7219;1.2414
980;3.2879;-3.1050;0.0000;-0.7704;1.2287
981;3.5667;-3.1054;0.0000;-0.7809;1.2217
982;-4.2663;-3.3644;0.0000;-0.7740;1.5037
983;-3.9691;-3.3760;0.0000;-0.7282;1.5239
984;-3.6701;-3.3782;0.0000;-0.7143;1.5043
985;-3.3666;-3.3781;0.0000;-0.6724;1.4868
986;-3.0597;-3.3780;0.0000;-0.6749;1.4765
987;-2.7512;-3.3780;0.0000;-0.7189;1.4556
988;-2.4422;-3.3780;0.0000;-0.7549;1.4268
989;-2.1329;-3.3781;0.0000;-0.7687;1.4000
990;-1.8234;-3.3783;0.0000;-0.7575;1.3860
991;-1.5138;-3.3788;0.0000;-0.7317;1.3584
992;-1.2041;-3.3794;0.0000;-0.6925;1.3491
993;-0.8943;-3.3799;0.0000;-0.7273;1.3798
994;-0.5848;-3.3802;0.0000;-0.7708;1.3895
995;-0.2752;-3.3802;0.0000;-0.7425;1.3747
996;0.0345;-3.3801;0.0000;-0.7178;1.3882
997;0.3441;-3.3799;0.0000;-0.7273;1.4458
998;0.6538;-3.3797;0.0000;-0.7516;1.4856
999;0.9634;-3.3794;0.0000;-0.7574;1.4814
1000;1.2730;-3.3791;0.0000;-0.7331;1.4580
1001;1.5826;-3.3791;0.0000;-0.7545;1.4091
1002;1.8922;-3.3789;0.0000;-0.8044;1.3504
1003;2.2019;-3.3787;0.0000;-0.7841;1.3079
1004;2.5123;-3.3784;0.0000;-0.7316;1.2713
1005;2.8249;-3.3780;0.0000;-0.7281;1.2369
1006;3.1426;-3.3784;0.0000;-0.7484;1.2304
1007;3.4735;-3.3917;0.0000;-0.7652;1.2369
1008;-4.3587;-3.6225;0.0000;-0.8121;1.5532
1009;-4.1030;-3.6479;0.0000;-0.7548;1.5193
1010;-3.8172;-3.6527;0.0000;-0.7068;1.4353
1011;-3.5183;-3.6526;0.0000;-0.6901;1.4027
1012;-3.2135;-3.6523;0.0000;-0.6912;1.4336
1013;-2.9060;-3.6523;0.0000;-0.7049;1.4529
1014;-2.5970;-3.6522;0.0000;-0.7021;1.4486
1015;-2.2876;-3.6521;0.0000;-0.7451;1.4581
1016;-1.9783;-3.6522;0.0000;-0.7903;1.4505
1017;-1.6689;-3.6525;0.0000;-0.7596;1.3738
1018;-1.3592;-3.6528;0.0000;-0.6823;1.3071
1019;-1.0492;-3.6534;0.0000;-0.6974;1.3041
1020;-0.7397;-3.6538;0.0000;-0.7643;1.3105
1021;-0.4302;-3.6540;0.0000;-0.7378;1.3221
1022;-0.1204;-3.6539;0.0000;-0.6919;1.3462
1023;0.1894;-3.6539;0.0000;-0.7198;1.3710
1024;0.4991;-3.6539;0.0000;-0.7225;1.4208
1025;0.8088;-3.6538;0.0000;-0.7571;1.4805
1026;1.1182;-3.6535;0.0000;-0.7878;1.4925
1027;1.4277;-3.6531;0.0000;-0.7417;1.4590
1028;1.7375;-3.6528;0.0000;-0.7663;1.4105
1029;2.0470;-3.6525;0.0000;-0.7928;1.3677
1030;2.3566;-3.6521;0.0000;-0.7173;1.3385
1031;2.6666;-3.6517;0.0000;-0.7158;1.3174
1032;2.9752;-3.6515;0.0000;-0.7653;1.2880
1033;3.2773;-3.6560;0.0000;-0.7617;1.2405
1034;3.5537;-3.6868;0.0000;-0.7661;1.2210
1035;-4.2843;-3.9132;0.0000;-0.7839;1.4985
1036;-3.9767;-3.9257;0.0000;-0.7214;1.4116
1037;-3.6729;-3.9267;0.0000;-0.6985;1.3759
1038;-3.3676;-3.9264;0.0000;-0.7074;1.3816
1039;-3.0604;-3.9263;0.0000;-0.7417;1.3895
1040;-2.7519;-3.9263;0.0000;-0.7355;1.3958
1041;-2.4427;-3.9262;0.0000;-0.7187;1.4216
1042;-2.1332;-3.9264;0.0000;-0.7390;1.4518
1043;-1.8237;-3.9264;0.0000;-0.7668;1.4258
1044;-1.5142;-3.9263;0.0000;-0.7337;1.3629
1045;-1.2044;-3.9268;0.0000;-0.7051;1.3031
1046;-0.8947;-3.9273;0.0000;-0.7219;1.2535
1047;-0.5850;-3.9276;0.0000;-0.7137;1.2419
1048;-0.2753;-3.9277;0.0000;-0.6909;1.2690
1049;0.0346;-3.9277;0.0000;-0.7180;1.3100
1050;0.3441;-3.9278;0.0000;-0.7327;1.3620
1051;0.6538;-3.9279;0.0000;-0.7047;1.3913
1052;0.9636;-3.9278;0.0000;-0.7402;1.3978
1053;1.2731;-3.9275;0.0000;-0.7717;1.4373
1054;1.5827;-3.9271;0.0000;-0.7780;1.4486
1055;1.8921;-3.9267;0.0000;-0.8076;1.4026
1056;2.2017;-3.9263;0.0000;-0.7184;1.3665
1057;2.5119;-3.9259;0.0000;-0.6828;1.3657
1058;2.8221;-3.9259;0.0000;-0.7706;1.3653
1059;3.1330;-3.9281;0.0000;-0.7722;1.3259
1060;3.4495;-3.9406;0.0000;-0.7604;1.2718
1061;-4.3698;-4.1912;0.0000;-0.7758;1.3167
1062;-4.1120;-4.1991;0.0000;-0.7502;1.3288
1063;-3.8210;-4.2006;0.0000;-0.7127;1.3480
1064;-3.5197;-4.2007;0.0000;-0.6987;1.3782
1065;-3.2140;-4.2007;0.0000;-0.7386;1.3787
1066;-2.9062;-4.2007;0.0000;-0.7603;1.3545
1067;-2.5975;-4.2006;0.0000;-0.7570;1.3594
1068;-2.2882;-4.2007;0.0000;-0.7276;1.3794
1069;-1.9786;-4.2009;0.0000;-0.7200;1.3935
1070;-1.6689;-4.2007;0.0000;-0.7459;1.4170
1071;-1.3593;-4.2007;0.0000;-0.7541;1.3987
1072;-1.0498;-4.2009;0.0000;-0.7414;1.3097
1073;-0.7402;-4.2011;0.0000;-0.6922;1.2223
1074;-0.4303;-4.2013;0.0000;-0.6794;1.2096
1075;-0.1204;-4.2014;0.0000;-0.6998;1.2660
1076;0.1892;-4.2016;0.0000;-0.7231;1.3291
1077;0.4989;-4.2019;0.0000;-0.6940;1.3458
1078;0.8087;-4.2017;0.0000;-0.6830;1.3394
1079;1.1186;-4.2015;0.0000;-0.7274;1.3581
1080;1.4281;-4.2014;0.0000;-0.7701;1.3894
1081;1.7376;-4.2008;0.0000;-0.8149;1.4045
1082;2.0470;-4.2002;0.0000;-0.7617;1.3946
1083;2.3568;-4.1998;0.0000;-0.6817;1.4154
1084;2.6666;-4.1998;0.0000;-0.7530;1.4539
1085;2.9750;-4.2004;0.0000;-0.7947;1.4432
1086;3.2811;-4.2029;0.0000;-0.7698;1.3999
1087;3.5831;-4.2080;0.0000;-0.7437;1.3069
1088;-4.2863;-4.4804;0.0000;-0.7357;1.2053
1089;-3.9774;-4.4751;0.0000;-0.7500;1.2473
1090;-3.6732;-4.4756;0.0000;-0.7202;1.2845
1091;-3.3677;-4.4759;0.0000;-0.7402;1.3228
1092;-3.0605;-4.4758;0.0000;-0.7392;1.3289
1093;-2.7518;-4.4756;0.0000;-0.7344;1.3248
1094;-2.4426;-4.4756;0.0000;-0.7453;1.3420
1095;-2.1332;-4.4757;0.0000;-0.7239;1.3533
1096;-1.8236;-4.4757;0.0000;-0.7367;1.3790
1097;-1.5140;-4.4756;0.0000;-0.7493;1.4228
1098;-1.2044;-4.4756;0.0000;-0.7383;1.4100
1099;-0.8947;-4.4754;0.0000;-0.7055;1.3439
1100;-0.5849;-4.4752;0.0000;-0.6994;1.2914
1101;-0.2752;-4.4754;0.0000;-0.7132;1.2914
1102;0.0345;-4.4757;0.0000;-0.7033;1.3153
1103;0.3443;-4.4759;0.0000;-0.6662;1.3173
1104;0.6542;-4.4759;0.0000;-0.6599;1.3273
1105;0.9641;-4.4756;0.0000;-0.6857;1.3474
1106;1.2738;-4.4753;0.0000;-0.7272;1.3579
1107;1.5834;-4.4750;0.0000;-0.7685;1.4074
1108;1.8929;-4.4745;0.0000;-0.7767;1.4860
1109;2.2026;-4.4739;0.0000;-0.7338;1.5533
1110;2.5125;-4.4738;0.0000;-0.7406;1.5736
1111;2.8223;-4.4739;0.0000;-0.7720;1.5198
1112;3.1330;-4.4739;0.0000;-0.7748;1.4424
1113;3.4497;-4.4684;0.0000;-0.7558;1.3812
1114;-4.3579;-4.7715;0.0000;-0.7005;1.1788
1115;-4.1011;-4.7530;0.0000;-0.7440;1.2110
1116;-3.8155;-4.7526;0.0000;-0.7310;1.2310
1117;-3.5166;-4.7527;0.0000;-0.7200;1.2321
1118;-3.2117;-4.7527;0.0000;-0.7279;1.2468
1119;-2.9040;-4.7524;0.0000;-0.7297;1.2851
1120;-2.5953;-4.7521;0.0000;-0.7555;1.3260
1121;-2.2860;-4.7520;0.0000;-0.7335;1.3483
1122;-1.9763;-4.7518;0.0000;-0.7087;1.3578
1123;-1.6666;-4.7517;0.0000;-0.7212;1.3821
1124;-1.3570;-4.7516;0.0000;-0.7323;1.4118
1125;-1.0473;-4.7511;0.0000;-0.7281;1.4245
1126;-0.7376;-4.7506;0.0000;-0.7166;1.4265
1127;-0.4279;-4.7504;0.0000;-0.7320;1.4023
1128;-0.1183;-4.7504;0.0000;-0.7196;1.3550
1129;0.1915;-4.7503;0.0000;-0.6671;1.3204
1130;0.5015;-4.7503;0.0000;-0.6221;1.3190
1131;0.8115;-4.7500;0.0000;-0.6421;1.3429
1132;1.1215;-4.7495;0.0000;-0.6861;1.3705
1133;1.4312;-4.7491;0.0000;-0.7257;1.4113
1134;1.7408;-4.7488;0.0000;-0.7502;1.4831
1135;2.0505;-4.7482;0.0000;-0.7461;1.5568
1136;2.3600;-4.7479;0.0000;-0.7670;1.5909
1137;2.6691;-4.7476;0.0000;-0.7635;1.5532
1138;2.9767;-4.7470;0.0000;-0.7489;1.4571
1139;3.2788;-4.7448;0.0000;-0.7593;1.3873
1140;3.5581;-4.7199;0.0000;-0.7624;1.3834
1141;-4.2577;-5.0354;0.0000;-0.7087;1.2162
1142;-3.9601;-5.0344;0.0000;-0.7132;1.2291
1143;-3.6604;-5.0326;0.0000;-0.6977;1.2283
1144;-3.3562;-5.0316;0.0000;-0.6996;1.2009
1145;-3.0491;-5.0310;0.0000;-0.7217;1.1980
1146;-2.7405;-5.0304;0.0000;-0.7604;1.2550
1147;-2.4314;-5.0300;0.0000;-0.7500;1.2779
1148;-2.1219;-5.0296;0.0000;-0.7058;1.2763
1149;-1.8121;-5.0290;0.0000;-0.6909;1.2904
1150;-1.5022;-5.0287;0.0000;-0.7092;1.3119
1151;-1.1925;-5.0281;0.0000;-0.7394;1.3802
1152;-0.8828;-5.0274;0.0000;-0.7360;1.4434
1153;-0.5731;-5.0267;0.0000;-0.7220;1.4419
1154;-0.2633;-5.0261;0.0000;-0.7203;1.4028
1155;0.0465;-5.0255;0.0000;-0.6858;1.3541
1156;0.3564;-5.0250;0.0000;-0.6445;1.3134
1157;0.6665;-5.0245;0.0000;-0.6403;1.3063
1158;0.9765;-5.0239;0.0000;-0.6565;1.3394
1159;1.2864;-5.0232;0.0000;-0.6728;1.3673
1160;1.5963;-5.0226;0.0000;-0.6946;1.3799
1161;1.9061;-5.0220;0.0000;-0.7056;1.4157
1162;2.2161;-5.0212;0.0000;-0.7285;1.4301
1163;2.5260;-5.0206;0.0000;-0.7865;1.4158
1164;2.8365;-5.0192;0.0000;-0.7810;1.4310
1165;3.1506;-5.0155;0.0000;-0.7551;1.4259
1166;3.4782;-5.0045;0.0000;-0.7828;1.4009
1167;-4.3600;-5.2943;0.0000;-0.7395;1.2215
1168;-4.0823;-5.3155;0.0000;-0.6855;1.2187
1169;-3.7872;-5.3138;0.0000;-0.6683;1.2253
1170;-3.4845;-5.3121;0.0000;-0.6758;1.2340
1171;-3.1780;-5.3106;0.0000;-0.7231;1.2257
1172;-2.8697;-5.3096;0.0000;-0.7722;1.2483
1173;-2.5606;-5.3088;0.0000;-0.7543;1.2679
1174;-2.2510;-5.3077;0.0000;-0.6930;1.2347
1175;-1.9410;-5.3068;0.0000;-0.6699;1.2104
1176;-1.6310;-5.3059;0.0000;-0.6983;1.2075
1177;-1.3211;-5.3051;0.0000;-0.7306;1.2407
1178;-1.0113;-5.3043;0.0000;-0.7259;1.3118
1179;-0.7014;-5.3031;0.0000;-0.7172;1.3630
1180;-0.3915;-5.3019;0.0000;-0.7188;1.3673
1181;-0.0816;-5.3007;0.0000;-0.6899;1.3613
1182;0.2285;-5.2996;0.0000;-0.6615;1.3519
1183;0.5386;-5.2985;0.0000;-0.6806;1.3107
1184;0.8485;-5.2974;0.0000;-0.6675;1.2960
1185;1.1587;-5.2963;0.0000;-0.6245;1.3214
1186;1.4689;-5.2952;0.0000;-0.6374;1.3102
1187;1.7790;-5.2941;0.0000;-0.6789;1.3014
1188;2.0890;-5.2929;0.0000;-0.6799;1.3323
1189;2.3990;-5.2916;0.0000;-0.7216;1.3175
1190;2.7079;-5.2902;0.0000;-0.8019;1.3188
1191;3.0137;-5.2880;0.0000;-0.7942;1.3929
1192;3.3088;-5.2823;0.0000;-0.7671;1.4244
1193;3.5666;-5.2781;0.0000;-0.8136;1.3935
