# Units: length:mm angle:deg time:s strain:% 
# Stage: image-000035
stage;index;relative_time;date
"image-000035";36;35.0000;"2022-09-26T12:01:25.387"
# Name : Surface_xy
id;x;y;z;epsilon_x;epsilon_y
0;-4.4893;5.5645;0.0000;-0.8183;1.6170
1;-4.1795;5.5644;0.0000;-0.7789;1.6296
2;-3.8696;5.5645;0.0000;-0.7475;1.7686
3;-3.5595;5.5645;0.0000;-0.6963;1.8196
4;-3.2493;5.5644;0.0000;-0.7295;1.7710
5;-2.9394;5.5645;0.0000;-0.8108;1.7698
6;-2.6297;5.5646;0.0000;-0.7938;1.7570
7;-2.3198;5.5646;0.0000;-0.7253;1.7454
8;-2.0097;5.5646;0.0000;-0.7297;1.7249
9;-1.6997;5.5646;0.0000;-0.7342;1.6891
10;-1.3896;5.5646;0.0000;-0.7336;1.7590
11;-1.0796;5.5644;0.0000;-0.7678;1.8378
12;-0.7698;5.5642;0.0000;-0.7960;1.8815
13;-0.4600;5.5642;0.0000;-0.8009;1.8694
14;-0.1501;5.5640;0.0000;-0.8098;1.7913
15;0.1597;5.5638;0.0000;-0.7927;1.8099
16;0.4698;5.5634;0.0000;-0.7668;1.8408
17;0.7797;5.5626;0.0000;-0.7773;1.8000
18;1.0896;5.5622;0.0000;-0.7922;1.8119
19;1.3993;5.5618;0.0000;-0.8097;1.8256
20;1.7092;5.5613;0.0000;-0.7829;1.7237
21;2.0190;5.5610;0.0000;-0.7865;1.6793
22;2.3287;5.5610;0.0000;-0.7579;1.7618
23;2.6389;5.5609;0.0000;-0.7307;1.7528
24;2.9488;5.5606;0.0000;-0.8173;1.6582
25;3.2585;5.5606;0.0000;-0.8751;1.6725
26;3.5680;5.5607;0.0000;-0.8999;1.7123
27;3.8148;5.4498;0.0000;-0.8923;1.7364
28;3.8134;5.1320;0.0000;-0.9025;1.7739
29;3.8119;4.8141;0.0000;-0.9001;1.7313
30;3.8103;4.4965;0.0000;-0.8743;1.7489
31;3.8088;4.1785;0.0000;-0.9193;1.8356
32;3.8076;3.8604;0.0000;-0.9511;1.8539
33;3.8065;3.5423;0.0000;-0.8898;1.9172
34;3.8053;3.2239;0.0000;-0.8568;1.9234
35;3.8043;2.9056;0.0000;-0.8227;1.8561
36;3.8032;2.5877;0.0000;-0.8574;1.8125
37;3.8020;2.2697;0.0000;-0.9544;1.7745
38;3.8009;1.9519;0.0000;-0.9865;1.8616
39;3.8000;1.6334;0.0000;-0.9890;2.0333
40;3.7993;1.3147;0.0000;-0.9381;1.9541
41;3.7985;0.9965;0.0000;-0.8835;1.8127
42;3.7976;0.6787;0.0000;-0.9517;1.7650
43;3.7968;0.3610;0.0000;-0.9700;1.6831
44;3.7963;0.0435;0.0000;-0.9028;1.7209
45;3.7956;-0.2744;0.0000;-0.8788;1.8402
46;3.7946;-0.5926;0.0000;-0.9195;1.8446
47;3.7938;-0.9106;0.0000;-0.8787;1.8709
48;3.7928;-1.2288;0.0000;-1.0028;1.9856
49;3.7920;-1.5476;0.0000;-1.0414;2.0611
50;3.7912;-1.8663;0.0000;-1.0389;1.9931
51;3.7904;-2.1849;0.0000;-0.9552;2.0062
52;3.7896;-2.5034;0.0000;-0.9197;1.9046
53;3.7889;-2.8212;0.0000;-0.8822;1.6770
54;3.7884;-3.1386;0.0000;-0.8615;1.6252
55;3.7877;-3.4560;0.0000;-0.8258;1.6117
56;3.7868;-3.7733;0.0000;-0.8394;1.6202
57;3.7860;-4.0907;0.0000;-0.8287;1.6281
58;3.7851;-4.4081;0.0000;-0.7845;1.6581
59;3.7844;-4.7257;0.0000;-0.8216;1.7644
60;3.7837;-5.0438;0.0000;-0.8560;1.8377
61;3.7830;-5.3618;0.0000;-0.8693;1.8279
62;3.7822;-5.6798;0.0000;-0.8817;1.8322
63;3.5191;-5.7537;0.0000;-0.8713;1.8440
64;3.2095;-5.7557;0.0000;-0.8379;1.8255
65;2.8998;-5.7576;0.0000;-0.8561;1.7758
66;2.5901;-5.7594;0.0000;-0.8035;1.7263
67;2.2801;-5.7613;0.0000;-0.7411;1.7629
68;1.9701;-5.7632;0.0000;-0.7620;1.7752
69;1.6603;-5.7647;0.0000;-0.7370;1.6931
70;1.3501;-5.7665;0.0000;-0.6696;1.7452
71;1.0397;-5.7682;0.0000;-0.6962;1.7050
72;0.7298;-5.7699;0.0000;-0.7773;1.6947
73;0.4199;-5.7718;0.0000;-0.7632;1.7956
74;0.1100;-5.7736;0.0000;-0.7375;1.7928
75;-0.2000;-5.7752;0.0000;-0.7678;1.7326
76;-0.5099;-5.7770;0.0000;-0.7818;1.7243
77;-0.8198;-5.7788;0.0000;-0.7657;1.7058
78;-1.1298;-5.7802;0.0000;-0.7654;1.6287
79;-1.4397;-5.7816;0.0000;-0.7931;1.6089
80;-1.7495;-5.7831;0.0000;-0.7576;1.6374
81;-2.0595;-5.7847;0.0000;-0.7201;1.6602
82;-2.3697;-5.7864;0.0000;-0.7297;1.7339
83;-2.6796;-5.7882;0.0000;-0.8145;1.8045
84;-2.9892;-5.7894;0.0000;-0.8430;1.7139
85;-3.2990;-5.7908;0.0000;-0.7599;1.6740
86;-3.6090;-5.7923;0.0000;-0.7495;1.6609
87;-3.9189;-5.7937;0.0000;-0.7947;1.6429
88;-4.2287;-5.7953;0.0000;-0.7810;1.7001
89;-4.5374;-5.7726;0.0000;-0.7923;1.6829
90;-4.5871;-5.5008;0.0000;-0.7922;1.6297
91;-4.5869;-5.1835;0.0000;-0.7289;1.6100
92;-4.5866;-4.8662;0.0000;-0.7664;1.6064
93;-4.5863;-4.5489;0.0000;-0.8207;1.6781
94;-4.5864;-4.2312;0.0000;-0.8815;1.8672
95;-4.5867;-3.9126;0.0000;-0.8865;2.0143
96;-4.5868;-3.5941;0.0000;-0.8921;1.9144
97;-4.5871;-3.2761;0.0000;-0.8327;1.7506
98;-4.5872;-2.9585;0.0000;-0.8404;1.6799
99;-4.5874;-2.6408;0.0000;-0.9265;1.9262
100;-4.5877;-2.3219;0.0000;-0.9092;2.0790
101;-4.5879;-2.0033;0.0000;-0.8719;1.9856
102;-4.5879;-1.6848;0.0000;-0.9007;2.0149
103;-4.5880;-1.3660;0.0000;-0.9485;1.9093
104;-4.5882;-1.0482;0.0000;-0.9363;1.6392
105;-4.5885;-0.7310;0.0000;-0.9118;1.5996
106;-4.5887;-0.4135;0.0000;-0.8729;1.8090
107;-4.5890;-0.0952;0.0000;-0.9019;1.9180
108;-4.5892;0.2232;0.0000;-0.9207;1.8937
109;-4.5894;0.5413;0.0000;-0.9089;1.9101
110;-4.5896;0.8597;0.0000;-0.8749;1.9820
111;-4.5897;1.1782;0.0000;-0.9286;1.9863
112;-4.5900;1.4966;0.0000;-0.8923;2.0327
113;-4.5901;1.8156;0.0000;-0.9359;2.0279
114;-4.5902;2.1341;0.0000;-0.9191;1.8330
115;-4.5902;2.4516;0.0000;-0.8523;1.8132
116;-4.5901;2.7701;0.0000;-0.8881;2.1035
117;-4.5903;3.0894;0.0000;-0.9337;2.2118
118;-4.5910;3.4083;0.0000;-0.9004;2.1187
119;-4.5915;3.7272;0.0000;-0.9232;2.0404
120;-4.5920;4.0457;0.0000;-0.9817;1.8666
121;-4.5929;4.3636;0.0000;-0.9477;1.8528
122;-4.5939;4.6819;0.0000;-0.8937;2.0302
123;-4.5946;5.0008;0.0000;-0.9164;1.9728
124;-4.5954;5.3189;0.0000;-0.8472;1.7876
125;-4.2994;5.2837;0.0000;-0.8091;1.7574
126;-3.9992;5.2792;0.0000;-0.7766;1.8051
127;-3.6956;5.2762;0.0000;-0.7417;1.8633
128;-3.3887;5.2751;0.0000;-0.7092;1.8613
129;-3.0802;5.2748;0.0000;-0.7589;1.8406
130;-2.7711;5.2748;0.0000;-0.8024;1.8209
131;-2.4616;5.2747;0.0000;-0.7409;1.7858
132;-2.1518;5.2745;0.0000;-0.7201;1.7629
133;-1.8419;5.2747;0.0000;-0.7562;1.7631
134;-1.5322;5.2746;0.0000;-0.7484;1.7939
135;-1.2224;5.2740;0.0000;-0.7607;1.8475
136;-0.9126;5.2735;0.0000;-0.7759;1.8827
137;-0.6030;5.2733;0.0000;-0.7877;1.9056
138;-0.2934;5.2734;0.0000;-0.8248;1.9051
139;0.0160;5.2733;0.0000;-0.8647;1.8928
140;0.3254;5.2727;0.0000;-0.8370;1.8849
141;0.6350;5.2720;0.0000;-0.8041;1.8396
142;0.9447;5.2714;0.0000;-0.7788;1.7873
143;1.2544;5.2709;0.0000;-0.7851;1.7790
144;1.5640;5.2705;0.0000;-0.7729;1.7444
145;1.8738;5.2702;0.0000;-0.7587;1.6737
146;2.1834;5.2700;0.0000;-0.7704;1.6769
147;2.4921;5.2698;0.0000;-0.7404;1.7114
148;2.7980;5.2702;0.0000;-0.7809;1.6953
149;3.0952;5.2711;0.0000;-0.8487;1.6883
150;3.3736;5.2732;0.0000;-0.8815;1.7216
151;3.6137;5.2651;0.0000;-0.9016;1.7453
152;-4.3949;4.9965;0.0000;-0.8689;1.9892
153;-4.1231;4.9946;0.0000;-0.8020;1.9760
154;-3.8327;4.9895;0.0000;-0.7830;1.9391
155;-3.5319;4.9878;0.0000;-0.7514;1.9233
156;-3.2260;4.9872;0.0000;-0.7249;1.9235
157;-2.9177;4.9871;0.0000;-0.7424;1.9145
158;-2.6087;4.9872;0.0000;-0.7463;1.8835
159;-2.2991;4.9872;0.0000;-0.7202;1.8648
160;-1.9895;4.9871;0.0000;-0.7908;1.9071
161;-1.6801;4.9869;0.0000;-0.8161;1.9470
162;-1.3706;4.9864;0.0000;-0.7902;1.9474
163;-1.0611;4.9858;0.0000;-0.7653;1.9206
164;-0.7514;4.9854;0.0000;-0.7396;1.8986
165;-0.4417;4.9851;0.0000;-0.7943;1.9352
166;-0.1323;4.9849;0.0000;-0.8970;1.9854
167;0.1767;4.9845;0.0000;-0.9426;1.9774
168;0.4858;4.9841;0.0000;-0.8806;1.9016
169;0.7951;4.9836;0.0000;-0.8078;1.8039
170;1.1048;4.9832;0.0000;-0.7586;1.7422
171;1.4144;4.9826;0.0000;-0.7592;1.7181
172;1.7241;4.9824;0.0000;-0.7577;1.6852
173;2.0336;4.9823;0.0000;-0.7551;1.6508
174;2.3428;4.9819;0.0000;-0.7642;1.6327
175;2.6503;4.9816;0.0000;-0.7792;1.6475
176;2.9533;4.9817;0.0000;-0.8359;1.6777
177;3.2485;4.9818;0.0000;-0.8486;1.6842
178;3.5380;4.9832;0.0000;-0.8744;1.7173
179;-4.2766;4.7167;0.0000;-0.8666;2.0432
180;-3.9794;4.7065;0.0000;-0.8066;1.9909
181;-3.6798;4.7036;0.0000;-0.7863;1.9191
182;-3.3758;4.7029;0.0000;-0.7661;1.8845
183;-3.0688;4.7028;0.0000;-0.7237;1.8961
184;-2.7600;4.7029;0.0000;-0.7120;1.9352
185;-2.4507;4.7030;0.0000;-0.7108;1.9826
186;-2.1411;4.7027;0.0000;-0.7819;2.0453
187;-1.8319;4.7024;0.0000;-0.8714;2.0820
188;-1.5228;4.7021;0.0000;-0.8498;2.0463
189;-1.2134;4.7015;0.0000;-0.7741;1.9683
190;-0.9037;4.7011;0.0000;-0.7309;1.9138
191;-0.5939;4.7008;0.0000;-0.7805;1.8837
192;-0.2846;4.7004;0.0000;-0.8776;1.8923
193;0.0245;4.7000;0.0000;-0.9300;1.9093
194;0.3334;4.6996;0.0000;-0.9234;1.8722
195;0.6426;4.6994;0.0000;-0.8601;1.8249
196;0.9520;4.6991;0.0000;-0.7945;1.7988
197;1.2616;4.6987;0.0000;-0.7604;1.7815
198;1.5712;4.6983;0.0000;-0.7569;1.7768
199;1.8807;4.6981;0.0000;-0.7589;1.7567
200;2.1901;4.6979;0.0000;-0.7626;1.6900
201;2.4983;4.6976;0.0000;-0.8118;1.6517
202;2.8025;4.6971;0.0000;-0.8481;1.6825
203;3.0970;4.6970;0.0000;-0.8514;1.6924
204;3.3727;4.6943;0.0000;-0.8487;1.6767
205;3.6101;4.6945;0.0000;-0.8676;1.6872
206;-4.3684;4.4534;0.0000;-0.9160;1.9198
207;-4.1112;4.4267;0.0000;-0.8738;1.9332
208;-3.8250;4.4220;0.0000;-0.8302;1.9206
209;-3.5260;4.4217;0.0000;-0.7937;1.8817
210;-3.2210;4.4219;0.0000;-0.7845;1.8729
211;-2.9134;4.4218;0.0000;-0.7424;1.9193
212;-2.6045;4.4216;0.0000;-0.7129;1.9930
213;-2.2950;4.4213;0.0000;-0.7333;2.0405
214;-1.9855;4.4209;0.0000;-0.8135;2.0634
215;-1.6763;4.4206;0.0000;-0.8650;2.0766
216;-1.3671;4.4204;0.0000;-0.8261;2.0263
217;-1.0575;4.4201;0.0000;-0.7698;1.9440
218;-0.7480;4.4198;0.0000;-0.8049;1.9084
219;-0.4387;4.4196;0.0000;-0.8754;1.8908
220;-0.1296;4.4191;0.0000;-0.8717;1.8599
221;0.1797;4.4188;0.0000;-0.8695;1.8341
222;0.4889;4.4185;0.0000;-0.8671;1.8234
223;0.7981;4.4182;0.0000;-0.8642;1.8289
224;1.1075;4.4178;0.0000;-0.8173;1.8554
225;1.4169;4.4173;0.0000;-0.7597;1.8632
226;1.7266;4.4170;0.0000;-0.7660;1.8331
227;2.0359;4.4170;0.0000;-0.7711;1.7991
228;2.3448;4.4169;0.0000;-0.8147;1.7748
229;2.6514;4.4164;0.0000;-0.8547;1.7500
230;2.9527;4.4160;0.0000;-0.8430;1.7460
231;3.2459;4.4156;0.0000;-0.8646;1.7558
232;3.5357;4.4037;0.0000;-0.8957;1.7689
233;-4.2930;4.1579;0.0000;-0.9268;1.8556
234;-3.9841;4.1443;0.0000;-0.8864;1.8762
235;-3.6800;4.1428;0.0000;-0.8365;1.8977
236;-3.3745;4.1431;0.0000;-0.8152;1.9018
237;-3.0673;4.1432;0.0000;-0.8174;1.9029
238;-2.7589;4.1430;0.0000;-0.7825;1.9217
239;-2.4497;4.1427;0.0000;-0.7490;1.9389
240;-2.1402;4.1422;0.0000;-0.7472;1.9410
241;-1.8307;4.1418;0.0000;-0.8045;1.9583
242;-1.5214;4.1414;0.0000;-0.8601;1.9885
243;-1.2121;4.1413;0.0000;-0.8271;1.9929
244;-0.9028;4.1413;0.0000;-0.8296;1.9701
245;-0.5935;4.1409;0.0000;-0.8641;1.9431
246;-0.2843;4.1406;0.0000;-0.8514;1.9089
247;0.0251;4.1403;0.0000;-0.8143;1.8778
248;0.3345;4.1400;0.0000;-0.8300;1.8772
249;0.6439;4.1398;0.0000;-0.8831;1.8790
250;0.9529;4.1394;0.0000;-0.8965;1.8700
251;1.2621;4.1387;0.0000;-0.8116;1.8683
252;1.5717;4.1384;0.0000;-0.7609;1.8336
253;1.8812;4.1384;0.0000;-0.7756;1.7941
254;2.1904;4.1383;0.0000;-0.7936;1.8063
255;2.4979;4.1379;0.0000;-0.8519;1.8183
256;2.8007;4.1375;0.0000;-0.8359;1.8089
257;3.0918;4.1375;0.0000;-0.8309;1.8115
258;3.3614;4.1372;0.0000;-0.8922;1.8342
259;3.5990;4.1065;0.0000;-0.9410;1.8579
260;-4.3768;3.8702;0.0000;-0.9276;1.9437
261;-4.1191;3.8690;0.0000;-0.8785;1.9307
262;-3.8277;3.8663;0.0000;-0.8598;1.9416
263;-3.5263;3.8660;0.0000;-0.8329;1.9597
264;-3.2205;3.8662;0.0000;-0.8498;1.9764
265;-2.9128;3.8661;0.0000;-0.8632;1.9820
266;-2.6043;3.8658;0.0000;-0.8313;1.9622
267;-2.2951;3.8654;0.0000;-0.7715;1.9487
268;-1.9855;3.8649;0.0000;-0.7744;1.9508
269;-1.6762;3.8644;0.0000;-0.8408;1.9464
270;-1.3670;3.8641;0.0000;-0.8478;1.9608
271;-1.0576;3.8639;0.0000;-0.8385;2.0029
272;-0.7484;3.8637;0.0000;-0.8456;1.9960
273;-0.4391;3.8636;0.0000;-0.8301;1.9576
274;-0.1296;3.8633;0.0000;-0.8072;1.9537
275;0.1798;3.8631;0.0000;-0.8319;1.9589
276;0.4891;3.8627;0.0000;-0.8759;1.9563
277;0.7982;3.8624;0.0000;-0.9011;1.9415
278;1.1073;3.8620;0.0000;-0.8631;1.8806
279;1.4167;3.8615;0.0000;-0.8154;1.7985
280;1.7261;3.8615;0.0000;-0.7948;1.7593
281;2.0354;3.8616;0.0000;-0.7695;1.7624
282;2.3441;3.8612;0.0000;-0.8096;1.8054
283;2.6497;3.8603;0.0000;-0.8397;1.8607
284;2.9478;3.8591;0.0000;-0.8255;1.8698
285;3.2323;3.8590;0.0000;-0.8515;1.8571
286;3.5046;3.8605;0.0000;-0.9182;1.8539
287;-4.2950;3.5865;0.0000;-0.8892;2.0701
288;-3.9849;3.5910;0.0000;-0.8461;2.0526
289;-3.6797;3.5900;0.0000;-0.8419;2.0609
290;-3.3739;3.5898;0.0000;-0.8578;2.1088
291;-3.0667;3.5895;0.0000;-0.8958;2.1317
292;-2.7585;3.5893;0.0000;-0.8969;2.0965
293;-2.4498;3.5892;0.0000;-0.8557;2.0639
294;-2.1406;3.5887;0.0000;-0.8158;2.0417
295;-1.8313;3.5882;0.0000;-0.8143;2.0123
296;-1.5219;3.5879;0.0000;-0.8276;1.9786
297;-1.2125;3.5876;0.0000;-0.8306;1.9692
298;-0.9032;3.5873;0.0000;-0.8264;1.9857
299;-0.5938;3.5872;0.0000;-0.8203;2.0207
300;-0.2844;3.5870;0.0000;-0.8137;2.0563
301;0.0250;3.5867;0.0000;-0.8307;2.0510
302;0.3343;3.5863;0.0000;-0.8677;2.0137
303;0.6435;3.5861;0.0000;-0.8851;1.9812
304;0.9527;3.5858;0.0000;-0.8678;1.9456
305;1.2619;3.5857;0.0000;-0.8551;1.8682
306;1.5711;3.5858;0.0000;-0.8435;1.8222
307;1.8805;3.5858;0.0000;-0.7898;1.8557
308;2.1896;3.5855;0.0000;-0.7897;1.9090
309;2.4971;3.5844;0.0000;-0.8308;1.9417
310;2.7995;3.5827;0.0000;-0.8322;1.9219
311;3.0898;3.5810;0.0000;-0.8425;1.8994
312;3.3586;3.5833;0.0000;-0.8591;1.9130
313;3.5971;3.6179;0.0000;-0.9171;1.9026
314;-4.3684;3.2969;0.0000;-0.8957;2.1766
315;-4.1111;3.3138;0.0000;-0.8662;2.1883
316;-3.8240;3.3143;0.0000;-0.8650;2.1822
317;-3.5246;3.3136;0.0000;-0.8699;2.1884
318;-3.2197;3.3132;0.0000;-0.8973;2.1778
319;-2.9125;3.3131;0.0000;-0.9087;2.1429
320;-2.6041;3.3130;0.0000;-0.8905;2.1304
321;-2.2952;3.3127;0.0000;-0.8604;2.1274
322;-1.9860;3.3123;0.0000;-0.8380;2.0861
323;-1.6767;3.3120;0.0000;-0.8301;2.0147
324;-1.3674;3.3118;0.0000;-0.8340;1.9636
325;-1.0580;3.3116;0.0000;-0.8064;1.9396
326;-0.7485;3.3113;0.0000;-0.8081;1.9647
327;-0.4392;3.3109;0.0000;-0.8226;2.0343
328;-0.1298;3.3105;0.0000;-0.8211;2.0635
329;0.1795;3.3104;0.0000;-0.8488;2.0394
330;0.4888;3.3103;0.0000;-0.8795;2.0150
331;0.7979;3.3101;0.0000;-0.8825;2.0090
332;1.1072;3.3100;0.0000;-0.8458;1.9925
333;1.4166;3.3100;0.0000;-0.8458;2.0044
334;1.7258;3.3099;0.0000;-0.8437;2.0681
335;2.0350;3.3096;0.0000;-0.8302;2.1129
336;2.3435;3.3089;0.0000;-0.8519;2.1013
337;2.6497;3.3075;0.0000;-0.8378;2.0521
338;2.9505;3.3057;0.0000;-0.8363;2.0098
339;3.2429;3.3058;0.0000;-0.8397;1.9882
340;3.5318;3.3237;0.0000;-0.8558;1.9606
341;-4.2738;3.0323;0.0000;-0.8942;2.2543
342;-3.9755;3.0366;0.0000;-0.8978;2.2472
343;-3.6762;3.0370;0.0000;-0.9138;2.2146
344;-3.3727;3.0370;0.0000;-0.9114;2.1870
345;-3.0664;3.0370;0.0000;-0.8993;2.1832
346;-2.7583;3.0369;0.0000;-0.8763;2.2006
347;-2.4496;3.0367;0.0000;-0.8704;2.2070
348;-2.1406;3.0363;0.0000;-0.8685;2.1868
349;-1.8314;3.0362;0.0000;-0.8579;2.1436
350;-1.5221;3.0363;0.0000;-0.8366;2.0918
351;-1.2128;3.0361;0.0000;-0.8083;2.0358
352;-0.9033;3.0359;0.0000;-0.8078;1.9978
353;-0.5939;3.0355;0.0000;-0.8232;1.9923
354;-0.2845;3.0349;0.0000;-0.7954;2.0010
355;0.0250;3.0346;0.0000;-0.8213;2.0292
356;0.3342;3.0345;0.0000;-0.8542;2.0599
357;0.6435;3.0343;0.0000;-0.8886;2.0601
358;0.9526;3.0340;0.0000;-0.8861;2.0540
359;1.2618;3.0341;0.0000;-0.8452;2.0899
360;1.5711;3.0338;0.0000;-0.8774;2.1731
361;1.8802;3.0334;0.0000;-0.8773;2.2209
362;2.1891;3.0330;0.0000;-0.8636;2.1878
363;2.4967;3.0322;0.0000;-0.8512;2.1295
364;2.8006;3.0308;0.0000;-0.8328;2.0811
365;3.0953;3.0298;0.0000;-0.8215;2.0188
366;3.3716;3.0343;0.0000;-0.8103;1.9335
367;3.6085;3.0391;0.0000;-0.8319;1.8924
368;-4.3940;2.7661;0.0000;-0.8671;2.0939
369;-4.1151;2.7615;0.0000;-0.8852;2.1015
370;-3.8239;2.7606;0.0000;-0.9115;2.1270
371;-3.5243;2.7607;0.0000;-0.9216;2.1336
372;-3.2197;2.7607;0.0000;-0.9099;2.1386
373;-2.9125;2.7606;0.0000;-0.8704;2.1872
374;-2.6040;2.7604;0.0000;-0.8511;2.2234
375;-2.2950;2.7602;0.0000;-0.8636;2.1864
376;-1.9859;2.7600;0.0000;-0.8737;2.1633
377;-1.6768;2.7600;0.0000;-0.8520;2.2124
378;-1.3675;2.7601;0.0000;-0.8151;2.2118
379;-1.0580;2.7601;0.0000;-0.8311;2.1300
380;-0.7487;2.7600;0.0000;-0.8409;2.0642
381;-0.4394;2.7595;0.0000;-0.7971;2.0073
382;-0.1298;2.7591;0.0000;-0.7954;1.9713
383;0.1796;2.7587;0.0000;-0.8227;1.9917
384;0.4889;2.7585;0.0000;-0.8505;2.0249
385;0.7981;2.7584;0.0000;-0.8877;2.0063
386;1.1073;2.7583;0.0000;-0.8728;2.0008
387;1.4166;2.7579;0.0000;-0.9003;2.0566
388;1.7255;2.7573;0.0000;-0.9327;2.1004
389;2.0344;2.7570;0.0000;-0.8783;2.1062
390;2.3430;2.7567;0.0000;-0.8465;2.0466
391;2.6498;2.7559;0.0000;-0.8306;1.9561
392;2.9520;2.7553;0.0000;-0.8125;1.8975
393;3.2473;2.7555;0.0000;-0.8021;1.8566
394;3.5367;2.7572;0.0000;-0.8331;1.8389
395;-4.2734;2.4955;0.0000;-0.8612;1.8203
396;-3.9752;2.4859;0.0000;-0.8861;1.8577
397;-3.6759;2.4846;0.0000;-0.9133;1.9440
398;-3.3727;2.4848;0.0000;-0.9008;1.9915
399;-3.0664;2.4849;0.0000;-0.8822;2.0204
400;-2.7584;2.4845;0.0000;-0.8516;2.0569
401;-2.4495;2.4843;0.0000;-0.8355;2.0422
402;-2.1404;2.4843;0.0000;-0.8528;1.9844
403;-1.8312;2.4840;0.0000;-0.8498;1.9820
404;-1.5219;2.4837;0.0000;-0.8231;2.0256
405;-1.2125;2.4839;0.0000;-0.8443;2.0164
406;-0.9034;2.4842;0.0000;-0.8716;1.9507
407;-0.5941;2.4840;0.0000;-0.8391;1.8864
408;-0.2847;2.4838;0.0000;-0.8093;1.8535
409;0.0247;2.4835;0.0000;-0.8030;1.8597
410;0.3342;2.4832;0.0000;-0.8052;1.9004
411;0.6436;2.4829;0.0000;-0.8701;1.9464
412;0.9527;2.4829;0.0000;-0.8981;1.9582
413;1.2619;2.4827;0.0000;-0.8993;1.9275
414;1.5709;2.4821;0.0000;-0.9241;1.8806
415;1.8799;2.4816;0.0000;-0.8906;1.8582
416;2.1888;2.4813;0.0000;-0.8490;1.8290
417;2.4965;2.4812;0.0000;-0.8287;1.7560
418;2.8003;2.4810;0.0000;-0.8060;1.7138
419;3.0944;2.4811;0.0000;-0.7984;1.7303
420;3.3693;2.4776;0.0000;-0.8327;1.7679
421;3.6040;2.4725;0.0000;-0.8967;1.7902
422;-4.3671;2.2360;0.0000;-0.8747;1.7300
423;-4.1101;2.2128;0.0000;-0.8757;1.7454
424;-3.8233;2.2092;0.0000;-0.8974;1.7770
425;-3.5245;2.2092;0.0000;-0.8822;1.8515
426;-3.2198;2.2094;0.0000;-0.8576;1.8938
427;-2.9125;2.2092;0.0000;-0.8655;1.8660
428;-2.6042;2.2089;0.0000;-0.8373;1.8134
429;-2.2950;2.2090;0.0000;-0.8225;1.7847
430;-1.9858;2.2091;0.0000;-0.8403;1.7645
431;-1.6765;2.2088;0.0000;-0.8259;1.7501
432;-1.3672;2.2087;0.0000;-0.8098;1.7744
433;-1.0578;2.2090;0.0000;-0.8360;1.8125
434;-0.7485;2.2093;0.0000;-0.8615;1.8228
435;-0.4393;2.2091;0.0000;-0.8664;1.8210
436;-0.1300;2.2087;0.0000;-0.8448;1.8363
437;0.1794;2.2082;0.0000;-0.8058;1.8868
438;0.4888;2.2078;0.0000;-0.8394;1.9258
439;0.7980;2.2074;0.0000;-0.8972;1.9318
440;1.1071;2.2074;0.0000;-0.9060;1.9058
441;1.4162;2.2073;0.0000;-0.8841;1.8304
442;1.7254;2.2069;0.0000;-0.8615;1.7543
443;2.0346;2.2067;0.0000;-0.8442;1.6982
444;2.3431;2.2067;0.0000;-0.8385;1.6556
445;2.6493;2.2067;0.0000;-0.8104;1.6512
446;2.9498;2.2066;0.0000;-0.8149;1.6886
447;3.2408;2.2059;0.0000;-0.8564;1.7316
448;3.5283;2.1892;0.0000;-0.9260;1.7635
449;-4.2927;1.9459;0.0000;-0.9013;1.9037
450;-3.9836;1.9353;0.0000;-0.8757;1.8472
451;-3.6793;1.9341;0.0000;-0.8724;1.8459
452;-3.3739;1.9342;0.0000;-0.8450;1.8568
453;-3.0669;1.9342;0.0000;-0.8461;1.8175
454;-2.7586;1.9342;0.0000;-0.8432;1.7620
455;-2.4497;1.9343;0.0000;-0.8270;1.7730
456;-2.1405;1.9344;0.0000;-0.8388;1.8317
457;-1.8313;1.9342;0.0000;-0.8172;1.8557
458;-1.5218;1.9339;0.0000;-0.8009;1.8729
459;-1.2124;1.9339;0.0000;-0.7990;1.9262
460;-0.9029;1.9341;0.0000;-0.8129;2.0057
461;-0.5935;1.9339;0.0000;-0.8692;2.0670
462;-0.2844;1.9337;0.0000;-0.8985;2.0544
463;0.0247;1.9332;0.0000;-0.8698;2.0076
464;0.3340;1.9325;0.0000;-0.8495;1.9849
465;0.6432;1.9321;0.0000;-0.8755;1.9589
466;0.9523;1.9322;0.0000;-0.8817;1.9213
467;1.2616;1.9322;0.0000;-0.8513;1.8810
468;1.5710;1.9322;0.0000;-0.8221;1.8285
469;1.8803;1.9320;0.0000;-0.8250;1.7964
470;2.1892;1.9320;0.0000;-0.8350;1.8083
471;2.4966;1.9321;0.0000;-0.8295;1.8476
472;2.7989;1.9317;0.0000;-0.8277;1.8805
473;3.0887;1.9314;0.0000;-0.8754;1.9012
474;3.3561;1.9308;0.0000;-0.9191;1.9054
475;3.5935;1.8940;0.0000;-0.9623;1.9193
476;-4.3766;1.6651;0.0000;-0.9070;2.0438
477;-4.1185;1.6605;0.0000;-0.8838;1.9884
478;-3.8273;1.6598;0.0000;-0.8673;1.9304
479;-3.5261;1.6592;0.0000;-0.8427;1.9051
480;-3.2204;1.6592;0.0000;-0.8317;1.9089
481;-2.9128;1.6593;0.0000;-0.8359;1.9243
482;-2.6041;1.6592;0.0000;-0.8344;1.9832
483;-2.2951;1.6589;0.0000;-0.8448;2.0466
484;-1.9859;1.6588;0.0000;-0.8227;2.0803
485;-1.6765;1.6585;0.0000;-0.8024;2.1100
486;-1.3671;1.6582;0.0000;-0.8304;2.1396
487;-1.0578;1.6582;0.0000;-0.8211;2.1854
488;-0.7484;1.6579;0.0000;-0.8160;2.2106
489;-0.4390;1.6576;0.0000;-0.8690;2.1915
490;-0.1299;1.6575;0.0000;-0.8929;2.1284
491;0.1792;1.6572;0.0000;-0.8795;2.0238
492;0.4884;1.6568;0.0000;-0.8687;1.9391
493;0.7977;1.6567;0.0000;-0.8469;1.9305
494;1.1070;1.6568;0.0000;-0.8256;1.9564
495;1.4164;1.6569;0.0000;-0.8053;1.9442
496;1.7259;1.6569;0.0000;-0.8005;1.9474
497;2.0351;1.6567;0.0000;-0.8228;2.0041
498;2.3435;1.6565;0.0000;-0.8460;2.0831
499;2.6490;1.6559;0.0000;-0.8482;2.1491
500;2.9467;1.6547;0.0000;-0.8715;2.1362
501;3.2300;1.6539;0.0000;-0.9118;2.0889
502;3.4985;1.6578;0.0000;-0.9556;2.0674
503;-4.2930;1.3761;0.0000;-0.8958;2.0249
504;-3.9838;1.3846;0.0000;-0.8744;2.0161
505;-3.6794;1.3845;0.0000;-0.8575;1.9842
506;-3.3741;1.3840;0.0000;-0.8460;1.9721
507;-3.0670;1.3837;0.0000;-0.8452;2.0070
508;-2.7587;1.3835;0.0000;-0.8500;2.0756
509;-2.4499;1.3830;0.0000;-0.8517;2.1294
510;-2.1408;1.3829;0.0000;-0.8196;2.1470
511;-1.8313;1.3826;0.0000;-0.7875;2.1422
512;-1.5219;1.3822;0.0000;-0.8398;2.1450
513;-1.2127;1.3819;0.0000;-0.8752;2.1745
514;-0.9035;1.3818;0.0000;-0.8285;2.1730
515;-0.5940;1.3817;0.0000;-0.8073;2.1194
516;-0.2847;1.3816;0.0000;-0.8342;2.0722
517;0.0247;1.3817;0.0000;-0.8508;2.0106
518;0.3339;1.3816;0.0000;-0.8679;1.9005
519;0.6431;1.3815;0.0000;-0.8499;1.8541
520;0.9525;1.3814;0.0000;-0.8141;1.9004
521;1.2619;1.3813;0.0000;-0.7989;1.9409
522;1.5714;1.3815;0.0000;-0.8046;1.9678
523;1.8808;1.3810;0.0000;-0.8252;2.0047
524;2.1896;1.3806;0.0000;-0.8549;2.0585
525;2.4968;1.3799;0.0000;-0.8656;2.1178
526;2.7992;1.3784;0.0000;-0.8648;2.1319
527;3.0900;1.3768;0.0000;-0.8827;2.0925
528;3.3607;1.3790;0.0000;-0.9225;2.0445
529;3.6005;1.4284;0.0000;-0.9648;2.0270
530;-4.3661;1.0821;0.0000;-0.8916;2.0261
531;-4.1101;1.1062;0.0000;-0.8871;2.0554
532;-3.8237;1.1091;0.0000;-0.8689;2.0322
533;-3.5248;1.1087;0.0000;-0.8653;1.9874
534;-3.2202;1.1084;0.0000;-0.8594;1.9718
535;-2.9129;1.1080;0.0000;-0.8447;1.9852
536;-2.6044;1.1075;0.0000;-0.8653;2.0064
537;-2.2955;1.1071;0.0000;-0.8357;2.0425
538;-1.9862;1.1069;0.0000;-0.7925;2.0612
539;-1.6768;1.1067;0.0000;-0.8315;2.0369
540;-1.3675;1.1063;0.0000;-0.8677;2.0032
541;-1.0583;1.1060;0.0000;-0.8512;1.9777
542;-0.7490;1.1060;0.0000;-0.8013;1.9465
543;-0.4395;1.1060;0.0000;-0.7933;1.9258
544;-0.1300;1.1061;0.0000;-0.7998;1.9298
545;0.1795;1.1063;0.0000;-0.8173;1.8982
546;0.4888;1.1065;0.0000;-0.8402;1.8420
547;0.7981;1.1063;0.0000;-0.8354;1.8159
548;1.1075;1.1061;0.0000;-0.8176;1.8297
549;1.4169;1.1061;0.0000;-0.8279;1.8687
550;1.7261;1.1059;0.0000;-0.8414;1.8668
551;2.0353;1.1054;0.0000;-0.8404;1.8417
552;2.3438;1.1047;0.0000;-0.8556;1.8420
553;2.6501;1.1034;0.0000;-0.8627;1.8450
554;2.9509;1.1015;0.0000;-0.8745;1.8746
555;3.2433;1.1024;0.0000;-0.9209;1.8954
556;3.5325;1.1210;0.0000;-0.9379;1.8811
557;-4.2732;0.8211;0.0000;-0.8819;2.0066
558;-3.9756;0.8312;0.0000;-0.8888;2.0065
559;-3.6765;0.8328;0.0000;-0.8734;1.9318
560;-3.3732;0.8329;0.0000;-0.8766;1.8534
561;-3.0669;0.8327;0.0000;-0.8503;1.8487
562;-2.7588;0.8324;0.0000;-0.8618;1.8717
563;-2.4502;0.8318;0.0000;-0.8560;1.8982
564;-2.1410;0.8315;0.0000;-0.7978;1.9355
565;-1.8315;0.8312;0.0000;-0.8112;1.9512
566;-1.5223;0.8310;0.0000;-0.8589;1.9083
567;-1.2130;0.8309;0.0000;-0.8339;1.8137
568;-0.9036;0.8309;0.0000;-0.8005;1.7401
569;-0.5942;0.8310;0.0000;-0.7832;1.7182
570;-0.2846;0.8309;0.0000;-0.7918;1.7206
571;0.0248;0.8309;0.0000;-0.8097;1.7455
572;0.3342;0.8312;0.0000;-0.8269;1.7815
573;0.6435;0.8314;0.0000;-0.8311;1.7804
574;0.9529;0.8313;0.0000;-0.8293;1.7592
575;1.2623;0.8311;0.0000;-0.8333;1.7735
576;1.5715;0.8310;0.0000;-0.8543;1.7816
577;1.8807;0.8308;0.0000;-0.8396;1.7458
578;2.1897;0.8303;0.0000;-0.8345;1.6909
579;2.4976;0.8295;0.0000;-0.8535;1.6584
580;2.8017;0.8273;0.0000;-0.8543;1.6880
581;3.0963;0.8249;0.0000;-0.8774;1.7395
582;3.3699;0.8310;0.0000;-0.9534;1.7692
583;3.6059;0.8430;0.0000;-0.9373;1.7807
584;-4.3940;0.5487;0.0000;-0.8840;1.9018
585;-4.1152;0.5552;0.0000;-0.8906;1.8984
586;-3.8245;0.5568;0.0000;-0.8937;1.8843
587;-3.5250;0.5578;0.0000;-0.8884;1.8422
588;-3.2204;0.5580;0.0000;-0.8669;1.8214
589;-2.9131;0.5576;0.0000;-0.8405;1.8401
590;-2.6047;0.5570;0.0000;-0.8653;1.8498
591;-2.2958;0.5564;0.0000;-0.8330;1.8306
592;-1.9865;0.5560;0.0000;-0.7842;1.8133
593;-1.6771;0.5558;0.0000;-0.8223;1.7968
594;-1.3677;0.5559;0.0000;-0.8239;1.7536
595;-1.0583;0.5562;0.0000;-0.7869;1.6685
596;-0.7488;0.5564;0.0000;-0.7739;1.6068
597;-0.4392;0.5565;0.0000;-0.7806;1.5885
598;-0.1298;0.5565;0.0000;-0.8140;1.5922
599;0.1795;0.5565;0.0000;-0.8390;1.6412
600;0.4888;0.5565;0.0000;-0.8394;1.7008
601;0.7982;0.5565;0.0000;-0.8396;1.7321
602;1.1075;0.5563;0.0000;-0.8243;1.7391
603;1.4169;0.5561;0.0000;-0.8096;1.7315
604;1.7262;0.5560;0.0000;-0.8284;1.7032
605;2.0355;0.5558;0.0000;-0.8377;1.6655
606;2.3444;0.5553;0.0000;-0.8421;1.6372
607;2.6522;0.5536;0.0000;-0.8510;1.6303
608;2.9570;0.5496;0.0000;-0.8582;1.6674
609;3.2554;0.5468;0.0000;-0.9177;1.7200
610;3.5418;0.5557;0.0000;-0.9711;1.7492
611;-4.2739;0.2854;0.0000;-0.9035;1.8928
612;-3.9760;0.2815;0.0000;-0.9090;1.9114
613;-3.6770;0.2820;0.0000;-0.9047;1.9361
614;-3.3737;0.2825;0.0000;-0.8758;1.9466
615;-3.0673;0.2825;0.0000;-0.8441;1.9110
616;-2.7592;0.2820;0.0000;-0.8487;1.8427
617;-2.4505;0.2816;0.0000;-0.8416;1.7581
618;-2.1413;0.2813;0.0000;-0.7872;1.6852
619;-1.8318;0.2812;0.0000;-0.7838;1.6591
620;-1.5225;0.2810;0.0000;-0.8152;1.6628
621;-1.2131;0.2813;0.0000;-0.7867;1.6597
622;-0.9035;0.2818;0.0000;-0.7745;1.6394
623;-0.5940;0.2820;0.0000;-0.7775;1.6273
624;-0.2844;0.2821;0.0000;-0.7916;1.6501
625;0.0250;0.2820;0.0000;-0.8311;1.6964
626;0.3343;0.2818;0.0000;-0.8422;1.7300
627;0.6435;0.2818;0.0000;-0.8546;1.7471
628;0.9527;0.2816;0.0000;-0.8443;1.7598
629;1.2622;0.2814;0.0000;-0.7802;1.7487
630;1.5719;0.2814;0.0000;-0.7736;1.7207
631;1.8813;0.2814;0.0000;-0.8384;1.7032
632;2.1904;0.2811;0.0000;-0.8640;1.6922
633;2.4999;0.2804;0.0000;-0.8445;1.6669
634;2.8102;0.2781;0.0000;-0.8616;1.6512
635;3.1236;0.2749;0.0000;-0.8859;1.6716
636;3.4467;0.2829;0.0000;-0.9454;1.6838
637;-4.3688;0.0214;0.0000;-0.9151;1.9318
638;-4.1115;0.0057;0.0000;-0.9035;1.9315
639;-3.8245;0.0055;0.0000;-0.9163;1.9490
640;-3.5255;0.0065;0.0000;-0.8890;1.9394
641;-3.2208;0.0071;0.0000;-0.8702;1.8703
642;-2.9135;0.0071;0.0000;-0.8595;1.7778
643;-2.6051;0.0070;0.0000;-0.8407;1.6878
644;-2.2960;0.0069;0.0000;-0.7824;1.6222
645;-1.9865;0.0068;0.0000;-0.7480;1.5869
646;-1.6770;0.0066;0.0000;-0.7707;1.5689
647;-1.3674;0.0066;0.0000;-0.7766;1.6009
648;-1.0580;0.0070;0.0000;-0.7905;1.6644
649;-0.7486;0.0073;0.0000;-0.8120;1.6951
650;-0.4392;0.0073;0.0000;-0.8029;1.7179
651;-0.1297;0.0071;0.0000;-0.8098;1.7534
652;0.1797;0.0069;0.0000;-0.8085;1.7806
653;0.4891;0.0068;0.0000;-0.8162;1.8060
654;0.7984;0.0067;0.0000;-0.8567;1.8269
655;1.1077;0.0065;0.0000;-0.8459;1.8168
656;1.4171;0.0065;0.0000;-0.7892;1.8062
657;1.7266;0.0065;0.0000;-0.7871;1.8080
658;2.0361;0.0064;0.0000;-0.8491;1.8132
659;2.3454;0.0062;0.0000;-0.8724;1.8378
660;2.6555;0.0054;0.0000;-0.8653;1.8413
661;2.9669;0.0037;0.0000;-0.8713;1.7848
662;3.2796;0.0040;0.0000;-0.8724;1.7265
663;3.5790;0.0242;0.0000;-0.9158;1.7196
664;-4.2944;-0.2654;0.0000;-0.8915;1.8514
665;-3.9844;-0.2697;0.0000;-0.9022;1.8320
666;-3.6800;-0.2689;0.0000;-0.9124;1.8152
667;-3.3747;-0.2681;0.0000;-0.9076;1.7981
668;-3.0679;-0.2676;0.0000;-0.8889;1.7675
669;-2.7597;-0.2676;0.0000;-0.8499;1.7124
670;-2.4507;-0.2676;0.0000;-0.8038;1.6444
671;-2.1413;-0.2676;0.0000;-0.7608;1.5696
672;-1.8318;-0.2676;0.0000;-0.7413;1.5162
673;-1.5222;-0.2677;0.0000;-0.7437;1.5072
674;-1.2126;-0.2678;0.0000;-0.7563;1.5786
675;-0.9030;-0.2676;0.0000;-0.7986;1.6890
676;-0.5937;-0.2674;0.0000;-0.8244;1.7400
677;-0.2844;-0.2676;0.0000;-0.8288;1.7218
678;0.0250;-0.2679;0.0000;-0.8066;1.7005
679;0.3346;-0.2681;0.0000;-0.7826;1.7460
680;0.6441;-0.2683;0.0000;-0.8271;1.8417
681;0.9533;-0.2686;0.0000;-0.8756;1.9041
682;1.2624;-0.2687;0.0000;-0.8545;1.9237
683;1.5717;-0.2687;0.0000;-0.7888;1.9138
684;1.8814;-0.2686;0.0000;-0.8190;1.9045
685;2.1909;-0.2689;0.0000;-0.8846;1.9425
686;2.5008;-0.2692;0.0000;-0.8787;1.9900
687;2.8129;-0.2696;0.0000;-0.8646;1.9656
688;3.1301;-0.2696;0.0000;-0.8393;1.8757
689;3.4578;-0.2709;0.0000;-0.8522;1.8328
690;-4.3729;-0.5477;0.0000;-0.8949;1.6875
691;-4.1173;-0.5455;0.0000;-0.8774;1.6975
692;-3.8268;-0.5432;0.0000;-0.8713;1.7035
693;-3.5261;-0.5429;0.0000;-0.8948;1.7308
694;-3.2210;-0.5427;0.0000;-0.9032;1.7732
695;-2.9136;-0.5425;0.0000;-0.8735;1.7735
696;-2.6051;-0.5424;0.0000;-0.8524;1.7387
697;-2.2961;-0.5421;0.0000;-0.8226;1.6870
698;-1.9867;-0.5418;0.0000;-0.7606;1.6258
699;-1.6771;-0.5418;0.0000;-0.7263;1.5782
700;-1.3674;-0.5419;0.0000;-0.7300;1.5740
701;-1.0577;-0.5422;0.0000;-0.7493;1.6528
702;-0.7482;-0.5424;0.0000;-0.7910;1.7335
703;-0.4388;-0.5424;0.0000;-0.8251;1.7489
704;-0.1295;-0.5423;0.0000;-0.8449;1.7400
705;0.1798;-0.5426;0.0000;-0.8213;1.7650
706;0.4892;-0.5431;0.0000;-0.8135;1.8538
707;0.7986;-0.5438;0.0000;-0.8284;1.9385
708;1.1080;-0.5442;0.0000;-0.8339;1.9764
709;1.4173;-0.5443;0.0000;-0.8185;1.9829
710;1.7268;-0.5440;0.0000;-0.8547;1.9964
711;2.0359;-0.5442;0.0000;-0.9073;2.0195
712;2.3453;-0.5445;0.0000;-0.8689;2.0293
713;2.6559;-0.5446;0.0000;-0.8431;2.0312
714;2.9676;-0.5442;0.0000;-0.8516;1.9873
715;3.2787;-0.5443;0.0000;-0.8323;1.9270
716;3.5781;-0.5685;0.0000;-0.8563;1.8752
717;-4.2903;-0.8322;0.0000;-0.9055;1.6217
718;-3.9818;-0.8175;0.0000;-0.8475;1.6850
719;-3.6786;-0.8171;0.0000;-0.8376;1.7539
720;-3.3739;-0.8174;0.0000;-0.8639;1.7938
721;-3.0671;-0.8174;0.0000;-0.8678;1.8070
722;-2.7591;-0.8173;0.0000;-0.8796;1.8075
723;-2.4504;-0.8172;0.0000;-0.8830;1.8117
724;-2.1413;-0.8168;0.0000;-0.8226;1.8304
725;-1.8319;-0.8166;0.0000;-0.7533;1.8186
726;-1.5223;-0.8164;0.0000;-0.7396;1.7770
727;-1.2126;-0.8167;0.0000;-0.7367;1.7511
728;-0.9030;-0.8171;0.0000;-0.7439;1.7459
729;-0.5934;-0.8172;0.0000;-0.7735;1.7602
730;-0.2840;-0.8173;0.0000;-0.8224;1.8162
731;0.0253;-0.8175;0.0000;-0.8568;1.8775
732;0.3346;-0.8181;0.0000;-0.8598;1.9080
733;0.6438;-0.8190;0.0000;-0.8268;1.9095
734;0.9532;-0.8195;0.0000;-0.8024;1.8965
735;1.2627;-0.8197;0.0000;-0.8061;1.9155
736;1.5722;-0.8197;0.0000;-0.8417;1.9953
737;1.8814;-0.8198;0.0000;-0.9073;2.0554
738;2.1906;-0.8200;0.0000;-0.8769;2.0325
739;2.5007;-0.8201;0.0000;-0.8387;1.9958
740;2.8120;-0.8200;0.0000;-0.8479;1.9667
741;3.1259;-0.8202;0.0000;-0.8546;1.9398
742;3.4448;-0.8237;0.0000;-0.8585;1.9090
743;-4.3636;-1.1266;0.0000;-0.9311;1.7154
744;-4.1056;-1.0923;0.0000;-0.8624;1.7373
745;-3.8213;-1.0917;0.0000;-0.8188;1.7952
746;-3.5238;-1.0924;0.0000;-0.8140;1.8355
747;-3.2198;-1.0925;0.0000;-0.8240;1.8504
748;-2.9126;-1.0926;0.0000;-0.8583;1.8851
749;-2.6044;-1.0924;0.0000;-0.8991;1.9377
750;-2.2957;-1.0922;0.0000;-0.8797;1.9850
751;-1.9865;-1.0920;0.0000;-0.8074;2.0048
752;-1.6771;-1.0918;0.0000;-0.7762;1.9784
753;-1.3676;-1.0917;0.0000;-0.7642;1.9297
754;-1.0580;-1.0919;0.0000;-0.7160;1.8821
755;-0.7482;-1.0921;0.0000;-0.7338;1.8672
756;-0.4385;-1.0922;0.0000;-0.7869;1.8870
757;-0.1291;-1.0927;0.0000;-0.8326;1.9179
758;0.1801;-1.0932;0.0000;-0.8771;1.9449
759;0.4892;-1.0938;0.0000;-0.8527;1.9246
760;0.7986;-1.0944;0.0000;-0.7996;1.8665
761;1.1081;-1.0947;0.0000;-0.8119;1.8520
762;1.4175;-1.0950;0.0000;-0.8437;1.8988
763;1.7267;-1.0954;0.0000;-0.8648;1.9549
764;2.0360;-1.0956;0.0000;-0.8470;1.9643
765;2.3457;-1.0955;0.0000;-0.8120;1.9224
766;2.6557;-1.0956;0.0000;-0.8216;1.8737
767;2.9655;-1.0960;0.0000;-0.8586;1.8747
768;3.2714;-1.1001;0.0000;-0.8894;1.9123
769;3.5558;-1.0831;0.0000;-0.9193;1.9185
770;-4.2598;-1.3667;0.0000;-0.8994;1.9004
771;-3.9692;-1.3678;0.0000;-0.8315;1.8924
772;-3.6739;-1.3681;0.0000;-0.7934;1.8725
773;-3.3720;-1.3680;0.0000;-0.7873;1.8760
774;-3.0661;-1.3679;0.0000;-0.8227;1.9390
775;-2.7584;-1.3680;0.0000;-0.8659;2.0253
776;-2.4497;-1.3681;0.0000;-0.8787;2.0961
777;-2.1407;-1.3680;0.0000;-0.8358;2.1136
778;-1.8315;-1.3677;0.0000;-0.8137;2.0992
779;-1.5221;-1.3673;0.0000;-0.7949;2.1316
780;-1.2126;-1.3673;0.0000;-0.7446;2.1591
781;-0.9028;-1.3675;0.0000;-0.7342;2.1152
782;-0.5933;-1.3676;0.0000;-0.8046;2.0696
783;-0.2840;-1.3679;0.0000;-0.8287;2.0317
784;0.0254;-1.3683;0.0000;-0.8323;2.0095
785;0.3347;-1.3690;0.0000;-0.8501;1.9863
786;0.6441;-1.3695;0.0000;-0.8068;1.9249
787;0.9535;-1.3698;0.0000;-0.8081;1.8893
788;1.2628;-1.3701;0.0000;-0.8479;1.8848
789;1.5720;-1.3704;0.0000;-0.8507;1.8614
790;1.8814;-1.3708;0.0000;-0.8147;1.8277
791;2.1912;-1.3708;0.0000;-0.7775;1.8205
792;2.5017;-1.3707;0.0000;-0.7810;1.8201
793;2.8141;-1.3705;0.0000;-0.8287;1.8398
794;3.1320;-1.3713;0.0000;-0.9016;1.9025
795;3.4678;-1.3753;0.0000;-0.9764;1.9906
796;-4.3625;-1.6054;0.0000;-0.8944;1.9985
797;-4.1043;-1.6428;0.0000;-0.8265;1.9601
798;-3.8203;-1.6449;0.0000;-0.8093;1.9331
799;-3.5232;-1.6439;0.0000;-0.7892;1.9027
800;-3.2193;-1.6435;0.0000;-0.7907;1.9195
801;-2.9122;-1.6437;0.0000;-0.8336;1.9746
802;-2.6039;-1.6439;0.0000;-0.8673;2.0002
803;-2.2952;-1.6440;0.0000;-0.8360;2.0201
804;-1.9858;-1.6437;0.0000;-0.8000;2.0685
805;-1.6764;-1.6434;0.0000;-0.7878;2.1597
806;-1.3669;-1.6437;0.0000;-0.7919;2.2453
807;-1.0574;-1.6438;0.0000;-0.7711;2.2483
808;-0.7479;-1.6436;0.0000;-0.8050;2.2153
809;-0.4386;-1.6437;0.0000;-0.8563;2.1891
810;-0.1294;-1.6438;0.0000;-0.8610;2.1610
811;0.1799;-1.6443;0.0000;-0.8445;2.0933
812;0.4892;-1.6447;0.0000;-0.8178;1.9954
813;0.7987;-1.6449;0.0000;-0.7840;1.9384
814;1.1082;-1.6452;0.0000;-0.7943;1.9129
815;1.4176;-1.6455;0.0000;-0.8160;1.8661
816;1.7270;-1.6456;0.0000;-0.8097;1.8072
817;2.0365;-1.6457;0.0000;-0.7925;1.7844
818;2.3463;-1.6456;0.0000;-0.7781;1.7986
819;2.6562;-1.6454;0.0000;-0.8038;1.8305
820;2.9655;-1.6450;0.0000;-0.8594;1.8818
821;3.2707;-1.6451;0.0000;-0.9390;1.9658
822;3.5521;-1.6681;0.0000;-1.0255;2.0188
823;-4.2900;-1.9008;0.0000;-0.8404;1.9435
824;-3.9810;-1.9189;0.0000;-0.7756;1.9121
825;-3.6778;-1.9198;0.0000;-0.7884;1.9260
826;-3.3732;-1.9190;0.0000;-0.8095;1.9375
827;-3.0664;-1.9189;0.0000;-0.8051;1.9021
828;-2.7583;-1.9192;0.0000;-0.8182;1.8618
829;-2.4494;-1.9192;0.0000;-0.8212;1.8536
830;-2.1402;-1.9193;0.0000;-0.8042;1.9015
831;-1.8309;-1.9193;0.0000;-0.8008;1.9685
832;-1.5213;-1.9196;0.0000;-0.7970;1.9982
833;-1.2120;-1.9198;0.0000;-0.8040;2.0364
834;-0.9026;-1.9198;0.0000;-0.8164;2.1129
835;-0.5932;-1.9198;0.0000;-0.8375;2.1610
836;-0.2839;-1.9199;0.0000;-0.8802;2.1774
837;0.0252;-1.9202;0.0000;-0.8722;2.1393
838;0.3345;-1.9203;0.0000;-0.8402;2.0593
839;0.6438;-1.9203;0.0000;-0.7911;2.0051
840;0.9534;-1.9205;0.0000;-0.7551;1.9582
841;1.2630;-1.9206;0.0000;-0.7637;1.8990
842;1.5725;-1.9206;0.0000;-0.7833;1.8406
843;1.8821;-1.9207;0.0000;-0.8037;1.8138
844;2.1917;-1.9207;0.0000;-0.8101;1.8284
845;2.5016;-1.9207;0.0000;-0.8187;1.8626
846;2.8120;-1.9206;0.0000;-0.8400;1.9034
847;3.1243;-1.9207;0.0000;-0.9015;1.9482
848;3.4427;-1.9269;0.0000;-0.9925;1.9754
849;-4.3729;-2.1860;0.0000;-0.8617;2.0278
850;-4.1174;-2.1899;0.0000;-0.7719;1.9962
851;-3.8265;-2.1942;0.0000;-0.7479;1.9604
852;-3.5255;-2.1945;0.0000;-0.7968;1.9736
853;-3.2202;-2.1942;0.0000;-0.8057;1.9620
854;-2.9125;-2.1942;0.0000;-0.7761;1.9175
855;-2.6037;-2.1942;0.0000;-0.7888;1.9194
856;-2.2946;-2.1944;0.0000;-0.7979;1.9734
857;-1.9852;-2.1945;0.0000;-0.8233;1.9948
858;-1.6760;-2.1945;0.0000;-0.8288;1.9385
859;-1.3666;-2.1948;0.0000;-0.7972;1.8995
860;-1.0571;-2.1953;0.0000;-0.8092;1.9515
861;-0.7479;-2.1956;0.0000;-0.8606;2.0223
862;-0.4386;-2.1957;0.0000;-0.8689;2.0555
863;-0.1294;-2.1959;0.0000;-0.8673;2.0445
864;0.1799;-2.1959;0.0000;-0.8432;2.0056
865;0.4892;-2.1959;0.0000;-0.8110;1.9736
866;0.7987;-2.1959;0.0000;-0.7642;1.9509
867;1.1084;-2.1959;0.0000;-0.7345;1.9011
868;1.4180;-2.1959;0.0000;-0.7584;1.8570
869;1.7275;-2.1957;0.0000;-0.8108;1.8494
870;2.0369;-2.1958;0.0000;-0.8490;1.8466
871;2.3464;-2.1960;0.0000;-0.8251;1.8565
872;2.6561;-2.1961;0.0000;-0.8194;1.8971
873;2.9655;-2.1959;0.0000;-0.8660;1.9605
874;3.2726;-2.1948;0.0000;-0.9594;1.9874
875;3.5758;-2.1899;0.0000;-0.9753;1.9944
876;-4.2940;-2.4697;0.0000;-0.8402;2.0358
877;-3.9846;-2.4677;0.0000;-0.7370;2.0064
878;-3.6796;-2.4693;0.0000;-0.7435;1.9710
879;-3.3739;-2.4695;0.0000;-0.8063;1.9554
880;-3.0667;-2.4695;0.0000;-0.7970;1.9517
881;-2.7582;-2.4697;0.0000;-0.7822;1.9872
882;-2.4492;-2.4700;0.0000;-0.7955;2.0559
883;-2.1399;-2.4704;0.0000;-0.7976;2.0974
884;-1.8305;-2.4703;0.0000;-0.8248;2.0812
885;-1.5213;-2.4701;0.0000;-0.8329;2.0196
886;-1.2119;-2.4704;0.0000;-0.7888;1.9622
887;-0.9024;-2.4709;0.0000;-0.8213;1.9521
888;-0.5931;-2.4712;0.0000;-0.8766;1.9856
889;-0.2840;-2.4714;0.0000;-0.8846;2.0008
890;0.0252;-2.4714;0.0000;-0.8526;1.9798
891;0.3346;-2.4713;0.0000;-0.8036;1.9350
892;0.6440;-2.4712;0.0000;-0.7782;1.8802
893;0.9536;-2.4712;0.0000;-0.7604;1.8270
894;1.2632;-2.4710;0.0000;-0.7482;1.7907
895;1.5728;-2.4709;0.0000;-0.7928;1.8050
896;1.8822;-2.4710;0.0000;-0.8543;1.8424
897;2.1915;-2.4710;0.0000;-0.8568;1.8392
898;2.5013;-2.4712;0.0000;-0.8123;1.8207
899;2.8117;-2.4715;0.0000;-0.8078;1.8502
900;3.1233;-2.4704;0.0000;-0.9117;1.8975
901;3.4407;-2.4590;0.0000;-0.9655;1.9265
902;-4.3677;-2.7561;0.0000;-0.8247;1.7838
903;-4.1109;-2.7431;0.0000;-0.7523;1.8282
904;-3.8242;-2.7437;0.0000;-0.7576;1.8648
905;-3.5249;-2.7446;0.0000;-0.7991;1.8779
906;-3.2200;-2.7447;0.0000;-0.8055;1.8769
907;-2.9125;-2.7449;0.0000;-0.8009;1.8809
908;-2.6038;-2.7454;0.0000;-0.8138;1.8895
909;-2.2948;-2.7459;0.0000;-0.8077;1.8886
910;-1.9854;-2.7462;0.0000;-0.7750;1.8984
911;-1.6759;-2.7459;0.0000;-0.8089;1.9360
912;-1.3666;-2.7458;0.0000;-0.8311;1.9584
913;-1.0572;-2.7461;0.0000;-0.7911;1.9405
914;-0.7477;-2.7465;0.0000;-0.8220;1.9338
915;-0.4385;-2.7468;0.0000;-0.8809;1.9512
916;-0.1293;-2.7470;0.0000;-0.8712;1.9402
917;0.1799;-2.7468;0.0000;-0.8056;1.9036
918;0.4896;-2.7465;0.0000;-0.7628;1.8744
919;0.7991;-2.7462;0.0000;-0.7852;1.8324
920;1.1085;-2.7459;0.0000;-0.7936;1.8039
921;1.4180;-2.7458;0.0000;-0.8072;1.8068
922;1.7274;-2.7459;0.0000;-0.8314;1.8004
923;2.0368;-2.7461;0.0000;-0.8520;1.7948
924;2.3462;-2.7462;0.0000;-0.8434;1.7950
925;2.6557;-2.7466;0.0000;-0.7922;1.7880
926;2.9645;-2.7473;0.0000;-0.8185;1.7678
927;3.2672;-2.7438;0.0000;-0.9375;1.7468
928;3.5469;-2.7136;0.0000;-0.9363;1.7451
929;-4.2735;-3.0208;0.0000;-0.7755;1.6545
930;-3.9757;-3.0192;0.0000;-0.7623;1.7042
931;-3.6765;-3.0197;0.0000;-0.8106;1.7654
932;-3.3731;-3.0198;0.0000;-0.7992;1.7811
933;-3.0664;-3.0199;0.0000;-0.7907;1.7935
934;-2.7583;-3.0201;0.0000;-0.8316;1.7657
935;-2.4495;-3.0205;0.0000;-0.8310;1.6936
936;-2.1403;-3.0209;0.0000;-0.7807;1.6475
937;-1.8307;-3.0209;0.0000;-0.7632;1.6899
938;-1.5213;-3.0210;0.0000;-0.8288;1.8040
939;-1.2120;-3.0213;0.0000;-0.8250;1.8764
940;-0.9025;-3.0216;0.0000;-0.7825;1.8859
941;-0.5930;-3.0220;0.0000;-0.8221;1.8750
942;-0.2837;-3.0222;0.0000;-0.8504;1.8489
943;0.0256;-3.0221;0.0000;-0.8216;1.8277
944;0.3350;-3.0218;0.0000;-0.7833;1.8196
945;0.6445;-3.0216;0.0000;-0.7949;1.8281
946;0.9540;-3.0213;0.0000;-0.8040;1.8462
947;1.2634;-3.0210;0.0000;-0.8097;1.8380
948;1.5727;-3.0210;0.0000;-0.8472;1.8144
949;1.8820;-3.0210;0.0000;-0.8568;1.7849
950;2.1915;-3.0211;0.0000;-0.8559;1.7573
951;2.5017;-3.0213;0.0000;-0.8250;1.7507
952;2.8140;-3.0219;0.0000;-0.7845;1.7287
953;3.1318;-3.0215;0.0000;-0.8473;1.6817
954;3.4630;-3.0087;0.0000;-0.8892;1.6505
955;-4.3922;-3.2835;0.0000;-0.8089;1.7664
956;-4.1147;-3.2916;0.0000;-0.7744;1.8019
957;-3.8242;-3.2943;0.0000;-0.8026;1.8438
958;-3.5248;-3.2947;0.0000;-0.8120;1.8486
959;-3.2199;-3.2947;0.0000;-0.7428;1.8304
960;-2.9123;-3.2949;0.0000;-0.7839;1.8127
961;-2.6038;-3.2950;0.0000;-0.8383;1.7584
962;-2.2949;-3.2952;0.0000;-0.8313;1.6808
963;-1.9855;-3.2953;0.0000;-0.7721;1.6584
964;-1.6760;-3.2956;0.0000;-0.7873;1.7187
965;-1.3666;-3.2962;0.0000;-0.8303;1.7823
966;-1.0573;-3.2966;0.0000;-0.7995;1.8179
967;-0.7478;-3.2970;0.0000;-0.8102;1.8305
968;-0.4385;-3.2972;0.0000;-0.8388;1.7944
969;-0.1292;-3.2972;0.0000;-0.8053;1.7733
970;0.1804;-3.2970;0.0000;-0.7833;1.8099
971;0.4899;-3.2966;0.0000;-0.8105;1.8254
972;0.7991;-3.2965;0.0000;-0.8331;1.8156
973;1.1085;-3.2962;0.0000;-0.7750;1.8218
974;1.4183;-3.2959;0.0000;-0.7897;1.8182
975;1.7276;-3.2959;0.0000;-0.8665;1.7859
976;2.0368;-3.2959;0.0000;-0.8931;1.7288
977;2.3463;-3.2959;0.0000;-0.8553;1.6745
978;2.6566;-3.2960;0.0000;-0.7882;1.6358
979;2.9680;-3.2960;0.0000;-0.7901;1.6154
980;3.2768;-3.2958;0.0000;-0.8378;1.6188
981;3.5555;-3.2962;0.0000;-0.8454;1.6210
982;-4.2721;-3.5566;0.0000;-0.8394;1.9407
983;-3.9752;-3.5682;0.0000;-0.8030;1.9609
984;-3.6764;-3.5703;0.0000;-0.8098;1.9404
985;-3.3733;-3.5702;0.0000;-0.7565;1.9149
986;-3.0665;-3.5701;0.0000;-0.7209;1.8971
987;-2.7581;-3.5701;0.0000;-0.7768;1.8782
988;-2.4493;-3.5701;0.0000;-0.8452;1.8367
989;-2.1404;-3.5701;0.0000;-0.8335;1.7884
990;-1.8309;-3.5703;0.0000;-0.7862;1.7676
991;-1.5215;-3.5708;0.0000;-0.8016;1.7398
992;-1.2121;-3.5713;0.0000;-0.7892;1.7298
993;-0.9025;-3.5718;0.0000;-0.8035;1.7547
994;-0.5932;-3.5721;0.0000;-0.8466;1.7624
995;-0.2839;-3.5720;0.0000;-0.8035;1.7547
996;0.0257;-3.5720;0.0000;-0.7593;1.7664
997;0.3352;-3.5720;0.0000;-0.7873;1.8039
998;0.6446;-3.5717;0.0000;-0.8360;1.8269
999;0.9538;-3.5714;0.0000;-0.8373;1.8363
1000;1.2633;-3.5712;0.0000;-0.7908;1.8428
1001;1.5728;-3.5710;0.0000;-0.8177;1.8030
1002;1.8821;-3.5708;0.0000;-0.8780;1.7275
1003;2.1915;-3.5705;0.0000;-0.8604;1.6770
1004;2.5018;-3.5702;0.0000;-0.7965;1.6431
1005;2.8141;-3.5698;0.0000;-0.7913;1.6064
1006;3.1317;-3.5703;0.0000;-0.8189;1.5981
1007;3.4623;-3.5836;0.0000;-0.8267;1.6071
1008;-4.3644;-3.8158;0.0000;-0.8784;2.0005
1009;-4.1090;-3.8413;0.0000;-0.8304;1.9559
1010;-3.8234;-3.8461;0.0000;-0.7958;1.8597
1011;-3.5248;-3.8459;0.0000;-0.7680;1.8345
1012;-3.2201;-3.8455;0.0000;-0.7439;1.8538
1013;-2.9127;-3.8455;0.0000;-0.7520;1.8471
1014;-2.6040;-3.8455;0.0000;-0.7764;1.8446
1015;-2.2948;-3.8453;0.0000;-0.8360;1.8565
1016;-1.9857;-3.8452;0.0000;-0.8340;1.8419
1017;-1.6764;-3.8455;0.0000;-0.8008;1.7678
1018;-1.3669;-3.8458;0.0000;-0.7713;1.7039
1019;-1.0573;-3.8463;0.0000;-0.7759;1.6898
1020;-0.7479;-3.8468;0.0000;-0.8254;1.6828
1021;-0.4386;-3.8470;0.0000;-0.8217;1.7067
1022;-0.1291;-3.8469;0.0000;-0.7520;1.7428
1023;0.1805;-3.8469;0.0000;-0.7629;1.7435
1024;0.4901;-3.8468;0.0000;-0.7913;1.7835
1025;0.7995;-3.8467;0.0000;-0.8426;1.8516
1026;1.1086;-3.8465;0.0000;-0.8532;1.8537
1027;1.4179;-3.8462;0.0000;-0.8139;1.8170
1028;1.7274;-3.8458;0.0000;-0.8463;1.7777
1029;2.0367;-3.8453;0.0000;-0.8717;1.7496
1030;2.3462;-3.8450;0.0000;-0.7841;1.7357
1031;2.6560;-3.8446;0.0000;-0.7716;1.7195
1032;2.9643;-3.8443;0.0000;-0.8327;1.6853
1033;3.2662;-3.8488;0.0000;-0.8303;1.6265
1034;3.5425;-3.8797;0.0000;-0.8291;1.5996
1035;-4.2902;-4.1078;0.0000;-0.8572;1.9132
1036;-3.9828;-4.1203;0.0000;-0.8092;1.8330
1037;-3.6792;-4.1212;0.0000;-0.7788;1.8017
1038;-3.3741;-4.1209;0.0000;-0.7662;1.8119
1039;-3.0671;-4.1206;0.0000;-0.7860;1.7991
1040;-2.7588;-4.1206;0.0000;-0.7856;1.7846
1041;-2.4498;-4.1205;0.0000;-0.8008;1.8229
1042;-2.1405;-4.1206;0.0000;-0.8240;1.8670
1043;-1.8313;-4.1205;0.0000;-0.8165;1.8424
1044;-1.5219;-4.1205;0.0000;-0.7938;1.7813
1045;-1.2124;-4.1208;0.0000;-0.7812;1.7223
1046;-0.9029;-4.1213;0.0000;-0.7794;1.6624
1047;-0.5933;-4.1215;0.0000;-0.7832;1.6386
1048;-0.2839;-4.1218;0.0000;-0.7702;1.6555
1049;0.0257;-4.1218;0.0000;-0.7779;1.6834
1050;0.3351;-4.1217;0.0000;-0.7952;1.7445
1051;0.6446;-4.1219;0.0000;-0.7824;1.7913
1052;0.9541;-4.1218;0.0000;-0.8069;1.7845
1053;1.2635;-4.1214;0.0000;-0.8271;1.7919
1054;1.5729;-4.1211;0.0000;-0.8451;1.8050
1055;1.8821;-4.1205;0.0000;-0.8977;1.7771
1056;2.1913;-4.1202;0.0000;-0.8309;1.7335
1057;2.5012;-4.1199;0.0000;-0.7503;1.7419
1058;2.8114;-4.1199;0.0000;-0.8031;1.7651
1059;3.1220;-4.1220;0.0000;-0.8410;1.7261
1060;3.4383;-4.1345;0.0000;-0.8321;1.6603
1061;-4.3756;-4.3869;0.0000;-0.8503;1.7442
1062;-4.1179;-4.3948;0.0000;-0.8365;1.7529
1063;-3.8273;-4.3963;0.0000;-0.8024;1.7786
1064;-3.5262;-4.3964;0.0000;-0.7786;1.8130
1065;-3.2207;-4.3962;0.0000;-0.7887;1.8076
1066;-2.9130;-4.3960;0.0000;-0.8001;1.7777
1067;-2.6044;-4.3960;0.0000;-0.8088;1.7691
1068;-2.2954;-4.3961;0.0000;-0.8105;1.7852
1069;-1.9860;-4.3961;0.0000;-0.8050;1.8060
1070;-1.6766;-4.3960;0.0000;-0.8120;1.8283
1071;-1.3672;-4.3959;0.0000;-0.8105;1.8196
1072;-1.0579;-4.3961;0.0000;-0.8013;1.7533
1073;-0.7484;-4.3963;0.0000;-0.7493;1.6732
1074;-0.4387;-4.3964;0.0000;-0.7432;1.6318
1075;-0.1290;-4.3965;0.0000;-0.7577;1.6483
1076;0.1804;-4.3966;0.0000;-0.7959;1.7015
1077;0.4899;-4.3969;0.0000;-0.7711;1.7258
1078;0.7995;-4.3967;0.0000;-0.7563;1.7223
1079;1.1090;-4.3965;0.0000;-0.7987;1.7360
1080;1.4184;-4.3963;0.0000;-0.8327;1.7681
1081;1.7277;-4.3958;0.0000;-0.8804;1.7853
1082;2.0369;-4.3951;0.0000;-0.8723;1.7646
1083;2.3462;-4.3946;0.0000;-0.8013;1.7771
1084;2.6557;-4.3948;0.0000;-0.7924;1.8209
1085;2.9641;-4.3955;0.0000;-0.8259;1.8209
1086;3.2700;-4.3978;0.0000;-0.8435;1.7784
1087;3.5718;-4.4029;0.0000;-0.8219;1.6977
1088;-4.2922;-4.6774;0.0000;-0.8145;1.6672
1089;-3.9835;-4.6719;0.0000;-0.8279;1.6899
1090;-3.6796;-4.6725;0.0000;-0.8045;1.7193
1091;-3.3744;-4.6727;0.0000;-0.8143;1.7635
1092;-3.0673;-4.6724;0.0000;-0.7971;1.7771
1093;-2.7588;-4.6721;0.0000;-0.7862;1.7572
1094;-2.4498;-4.6720;0.0000;-0.7999;1.7449
1095;-2.1405;-4.6721;0.0000;-0.8028;1.7500
1096;-1.8312;-4.6720;0.0000;-0.8105;1.7814
1097;-1.5218;-4.6720;0.0000;-0.7990;1.8227
1098;-1.2123;-4.6720;0.0000;-0.7967;1.8139
1099;-0.9029;-4.6718;0.0000;-0.7784;1.7612
1100;-0.5933;-4.6716;0.0000;-0.7607;1.7215
1101;-0.2838;-4.6716;0.0000;-0.7621;1.7153
1102;0.0258;-4.6718;0.0000;-0.7680;1.7269
1103;0.3354;-4.6719;0.0000;-0.7437;1.7292
1104;0.6451;-4.6719;0.0000;-0.7256;1.7267
1105;0.9547;-4.6717;0.0000;-0.7572;1.7301
1106;1.2642;-4.6713;0.0000;-0.8089;1.7486
1107;1.5736;-4.6711;0.0000;-0.8443;1.8069
1108;1.8828;-4.6704;0.0000;-0.8588;1.8937
1109;2.1922;-4.6697;0.0000;-0.8375;1.9826
1110;2.5017;-4.6698;0.0000;-0.8248;1.9941
1111;2.8114;-4.6700;0.0000;-0.8111;1.9112
1112;3.1219;-4.6699;0.0000;-0.8392;1.8309
1113;3.4385;-4.6643;0.0000;-0.8318;1.7805
1114;-4.3638;-4.9698;0.0000;-0.7627;1.6266
1115;-4.1071;-4.9511;0.0000;-0.8152;1.6636
1116;-3.8218;-4.9507;0.0000;-0.8150;1.6718
1117;-3.5231;-4.9507;0.0000;-0.7965;1.6590
1118;-3.2184;-4.9506;0.0000;-0.8072;1.6842
1119;-2.9110;-4.9501;0.0000;-0.8008;1.7245
1120;-2.6024;-4.9497;0.0000;-0.7927;1.7473
1121;-2.2933;-4.9495;0.0000;-0.7890;1.7695
1122;-1.9838;-4.9493;0.0000;-0.7799;1.7812
1123;-1.6743;-4.9491;0.0000;-0.7759;1.7895
1124;-1.3648;-4.9490;0.0000;-0.7790;1.8023
1125;-1.0553;-4.9485;0.0000;-0.7996;1.8091
1126;-0.7458;-4.9481;0.0000;-0.7936;1.8193
1127;-0.4364;-4.9479;0.0000;-0.7913;1.8051
1128;-0.1269;-4.9477;0.0000;-0.7740;1.7701
1129;0.1827;-4.9476;0.0000;-0.7415;1.7524
1130;0.4925;-4.9475;0.0000;-0.6892;1.7496
1131;0.8023;-4.9471;0.0000;-0.7071;1.7590
1132;1.1120;-4.9465;0.0000;-0.7698;1.7949
1133;1.4215;-4.9462;0.0000;-0.8024;1.8373
1134;1.7309;-4.9459;0.0000;-0.8232;1.8977
1135;2.0403;-4.9454;0.0000;-0.8295;1.9809
1136;2.3495;-4.9451;0.0000;-0.8588;2.0075
1137;2.6583;-4.9449;0.0000;-0.8298;1.9479
1138;2.9658;-4.9442;0.0000;-0.8055;1.8581
1139;3.2677;-4.9418;0.0000;-0.8279;1.8153
1140;3.5467;-4.9168;0.0000;-0.8308;1.8179
1141;-4.2636;-5.2349;0.0000;-0.7530;1.6371
1142;-3.9662;-5.2338;0.0000;-0.8151;1.6531
1143;-3.6668;-5.2318;0.0000;-0.7911;1.6416
1144;-3.3628;-5.2308;0.0000;-0.7748;1.6144
1145;-3.0560;-5.2300;0.0000;-0.8086;1.6283
1146;-2.7477;-5.2293;0.0000;-0.7962;1.6842
1147;-2.4386;-5.2287;0.0000;-0.7787;1.7072
1148;-2.1292;-5.2283;0.0000;-0.7715;1.7130
1149;-1.8197;-5.2277;0.0000;-0.7509;1.7334
1150;-1.5099;-5.2272;0.0000;-0.7568;1.7558
1151;-1.2003;-5.2267;0.0000;-0.7926;1.8101
1152;-0.8909;-5.2260;0.0000;-0.8168;1.8605
1153;-0.5815;-5.2252;0.0000;-0.8046;1.8459
1154;-0.2719;-5.2245;0.0000;-0.7782;1.8082
1155;0.0377;-5.2239;0.0000;-0.7503;1.7746
1156;0.3474;-5.2234;0.0000;-0.7137;1.7334
1157;0.6573;-5.2229;0.0000;-0.7112;1.7256
1158;0.9671;-5.2222;0.0000;-0.7431;1.7616
1159;1.2766;-5.2215;0.0000;-0.7530;1.7837
1160;1.5864;-5.2209;0.0000;-0.7633;1.7921
1161;1.8960;-5.2201;0.0000;-0.7770;1.8252
1162;2.2057;-5.2193;0.0000;-0.7965;1.8264
1163;2.5155;-5.2187;0.0000;-0.8572;1.7953
1164;2.8258;-5.2173;0.0000;-0.8471;1.8236
1165;3.1396;-5.2137;0.0000;-0.8163;1.8543
1166;3.4670;-5.2028;0.0000;-0.8406;1.8451
1167;-4.3659;-5.4948;0.0000;-0.7638;1.6446
1168;-4.0882;-5.5160;0.0000;-0.7756;1.6459
1169;-3.7936;-5.5142;0.0000;-0.7848;1.6443
1170;-3.4911;-5.5124;0.0000;-0.7444;1.6477
1171;-3.1847;-5.5109;0.0000;-0.7957;1.6529
1172;-2.8767;-5.5097;0.0000;-0.8379;1.6970
1173;-2.5678;-5.5087;0.0000;-0.7786;1.7203
1174;-2.2582;-5.5076;0.0000;-0.7461;1.6713
1175;-1.9485;-5.5066;0.0000;-0.7401;1.6513
1176;-1.6387;-5.5057;0.0000;-0.7624;1.6642
1177;-1.3290;-5.5049;0.0000;-0.7822;1.6864
1178;-1.0193;-5.5040;0.0000;-0.7837;1.7446
1179;-0.7096;-5.5028;0.0000;-0.7935;1.7831
1180;-0.4000;-5.5015;0.0000;-0.7830;1.7831
1181;-0.0902;-5.5003;0.0000;-0.7496;1.7802
1182;0.2197;-5.4991;0.0000;-0.7373;1.7684
1183;0.5295;-5.4980;0.0000;-0.7576;1.7248
1184;0.8391;-5.4968;0.0000;-0.7525;1.6961
1185;1.1490;-5.4956;0.0000;-0.7086;1.7084
1186;1.4590;-5.4945;0.0000;-0.7106;1.7065
1187;1.7688;-5.4934;0.0000;-0.7535;1.7269
1188;2.0786;-5.4922;0.0000;-0.7433;1.7662
1189;2.3884;-5.4909;0.0000;-0.7793;1.7372
1190;2.6972;-5.4894;0.0000;-0.8622;1.7402
1191;3.0028;-5.4873;0.0000;-0.8526;1.8170
1192;3.2978;-5.4817;0.0000;-0.8320;1.8525
1193;3.5553;-5.4775;0.0000;-0.8736;1.8426
