# Units: length:mm angle:deg time:s strain:% 
# Stage: image-000005
stage;index;relative_time;date
"image-000005";6;5.0000;"2022-09-26T12:00:55.387"
# Name : Surface_xy
id;x;y;z;epsilon_x;epsilon_y
0;-4.5228;5.7561;0.0000;-0.0754;0.3198
1;-4.2107;5.7563;0.0000;-0.0850;0.3090
2;-3.8986;5.7566;0.0000;-0.0816;0.3447
3;-3.5866;5.7567;0.0000;-0.0768;0.3500
4;-3.2745;5.7569;0.0000;-0.0861;0.3381
5;-2.9625;5.7570;0.0000;-0.1009;0.3343
6;-2.6506;5.7571;0.0000;-0.0799;0.3082
7;-2.3385;5.7571;0.0000;-0.0658;0.3132
8;-2.0263;5.7572;0.0000;-0.0534;0.3032
9;-1.7141;5.7573;0.0000;-0.0318;0.2821
10;-1.4019;5.7575;0.0000;-0.0481;0.3021
11;-1.0897;5.7576;0.0000;-0.0564;0.2853
12;-0.7776;5.7577;0.0000;-0.0742;0.2768
13;-0.4655;5.7579;0.0000;-0.0840;0.2962
14;-0.1535;5.7580;0.0000;-0.0873;0.2928
15;0.1585;5.7582;0.0000;-0.0936;0.2510
16;0.4706;5.7583;0.0000;-0.0962;0.2279
17;0.7826;5.7586;0.0000;-0.0957;0.2416
18;1.0946;5.7587;0.0000;-0.1048;0.2362
19;1.4065;5.7589;0.0000;-0.1243;0.2529
20;1.7184;5.7590;0.0000;-0.1144;0.2253
21;2.0305;5.7592;0.0000;-0.1102;0.2223
22;2.3424;5.7596;0.0000;-0.1036;0.2787
23;2.6544;5.7596;0.0000;-0.1169;0.2469
24;2.9663;5.7597;0.0000;-0.1323;0.2035
25;3.2782;5.7598;0.0000;-0.1271;0.1795
26;3.5902;5.7600;0.0000;-0.1031;0.1917
27;3.8391;5.6508;0.0000;-0.0723;0.2126
28;3.8382;5.3377;0.0000;-0.0836;0.2381
29;3.8373;5.0247;0.0000;-0.1094;0.2525
30;3.8363;4.7115;0.0000;-0.1235;0.2867
31;3.8355;4.3983;0.0000;-0.1035;0.2982
32;3.8345;4.0850;0.0000;-0.1055;0.2888
33;3.8336;3.7718;0.0000;-0.1228;0.2955
34;3.8327;3.4586;0.0000;-0.0928;0.3163
35;3.8317;3.1452;0.0000;-0.0762;0.3390
36;3.8307;2.8318;0.0000;-0.0876;0.3388
37;3.8298;2.5185;0.0000;-0.0885;0.3240
38;3.8289;2.2052;0.0000;-0.0919;0.3308
39;3.8280;1.8918;0.0000;-0.0936;0.3416
40;3.8271;1.5785;0.0000;-0.1131;0.3272
41;3.8262;1.2651;0.0000;-0.0896;0.2968
42;3.8252;0.9520;0.0000;-0.1206;0.2821
43;3.8243;0.6388;0.0000;-0.1313;0.2635
44;3.8235;0.3257;0.0000;-0.0788;0.2573
45;3.8225;0.0125;0.0000;-0.1111;0.2789
46;3.8215;-0.3007;0.0000;-0.1477;0.2747
47;3.8207;-0.6138;0.0000;-0.1262;0.2578
48;3.8199;-0.9269;0.0000;-0.1091;0.2387
49;3.8190;-1.2399;0.0000;-0.0921;0.2468
50;3.8180;-1.5531;0.0000;-0.1199;0.2450
51;3.8171;-1.8662;0.0000;-0.0963;0.2388
52;3.8163;-2.1792;0.0000;-0.0747;0.2429
53;3.8153;-2.4923;0.0000;-0.1073;0.2403
54;3.8144;-2.8053;0.0000;-0.1142;0.2136
55;3.8136;-3.1183;0.0000;-0.0915;0.2688
56;3.8128;-3.4316;0.0000;-0.0695;0.3000
57;3.8120;-3.7448;0.0000;-0.0424;0.3038
58;3.8110;-4.0581;0.0000;-0.0814;0.3107
59;3.8102;-4.3714;0.0000;-0.0806;0.3092
60;3.8093;-4.6846;0.0000;-0.1078;0.3116
61;3.8084;-4.9980;0.0000;-0.1277;0.3441
62;3.8076;-5.3114;0.0000;-0.1055;0.3338
63;3.5423;-5.3838;0.0000;-0.0893;0.3080
64;3.2303;-5.3855;0.0000;-0.0631;0.3095
65;2.9182;-5.3872;0.0000;-0.0609;0.2859
66;2.6060;-5.3889;0.0000;-0.0653;0.3286
67;2.2939;-5.3907;0.0000;-0.0765;0.3482
68;1.9819;-5.3924;0.0000;-0.0938;0.3185
69;1.6698;-5.3941;0.0000;-0.0696;0.3085
70;1.3577;-5.3959;0.0000;-0.0632;0.3256
71;1.0456;-5.3976;0.0000;-0.0862;0.2945
72;0.7336;-5.3993;0.0000;-0.0848;0.2865
73;0.4215;-5.4012;0.0000;-0.0840;0.3274
74;0.1095;-5.4030;0.0000;-0.0855;0.3193
75;-0.2025;-5.4046;0.0000;-0.0836;0.2985
76;-0.5146;-5.4064;0.0000;-0.1012;0.3071
77;-0.8265;-5.4081;0.0000;-0.1127;0.2991
78;-1.1386;-5.4099;0.0000;-0.0933;0.2872
79;-1.4506;-5.4118;0.0000;-0.0985;0.3202
80;-1.7626;-5.4135;0.0000;-0.0869;0.3201
81;-2.0747;-5.4153;0.0000;-0.0599;0.3179
82;-2.3868;-5.4170;0.0000;-0.0853;0.3150
83;-2.6987;-5.4189;0.0000;-0.1074;0.3568
84;-3.0107;-5.4207;0.0000;-0.0676;0.3716
85;-3.3229;-5.4224;0.0000;-0.0783;0.3677
86;-3.6349;-5.4241;0.0000;-0.0826;0.3528
87;-3.9470;-5.4258;0.0000;-0.0880;0.3337
88;-4.2590;-5.4275;0.0000;-0.0931;0.3288
89;-4.5698;-5.4054;0.0000;-0.0972;0.3078
90;-4.6201;-5.1374;0.0000;-0.0930;0.3093
91;-4.6204;-4.8241;0.0000;-0.0925;0.3424
92;-4.6207;-4.5106;0.0000;-0.1047;0.3530
93;-4.6210;-4.1972;0.0000;-0.1093;0.3469
94;-4.6213;-3.8839;0.0000;-0.0959;0.3169
95;-4.6216;-3.5706;0.0000;-0.0759;0.3262
96;-4.6219;-3.2573;0.0000;-0.0871;0.3059
97;-4.6221;-2.9440;0.0000;-0.0855;0.3084
98;-4.6223;-2.6308;0.0000;-0.0775;0.2934
99;-4.6226;-2.3175;0.0000;-0.0906;0.2905
100;-4.6228;-2.0043;0.0000;-0.1127;0.2716
101;-4.6230;-1.6912;0.0000;-0.1067;0.2676
102;-4.6233;-1.3780;0.0000;-0.0929;0.2766
103;-4.6235;-1.0648;0.0000;-0.1294;0.2525
104;-4.6238;-0.7518;0.0000;-0.1083;0.2371
105;-4.6242;-0.4387;0.0000;-0.0857;0.2429
106;-4.6245;-0.1256;0.0000;-0.0885;0.2478
107;-4.6248;0.1875;0.0000;-0.1027;0.2524
108;-4.6251;0.5006;0.0000;-0.1222;0.2464
109;-4.6254;0.8137;0.0000;-0.1302;0.2654
110;-4.6257;1.1269;0.0000;-0.1149;0.2893
111;-4.6260;1.4402;0.0000;-0.1012;0.3065
112;-4.6264;1.7534;0.0000;-0.0882;0.2939
113;-4.6267;2.0666;0.0000;-0.0995;0.2851
114;-4.6270;2.3798;0.0000;-0.0903;0.3052
115;-4.6273;2.6931;0.0000;-0.0794;0.3060
116;-4.6276;3.0065;0.0000;-0.1171;0.3424
117;-4.6280;3.3199;0.0000;-0.0552;0.3433
118;-4.6284;3.6332;0.0000;-0.0317;0.3189
119;-4.6286;3.9465;0.0000;-0.0759;0.3582
120;-4.6289;4.2600;0.0000;-0.1005;0.3751
121;-4.6292;4.5735;0.0000;-0.0932;0.3478
122;-4.6295;4.8868;0.0000;-0.0850;0.3422
123;-4.6297;5.2003;0.0000;-0.0949;0.3493
124;-4.6300;5.5136;0.0000;-0.0719;0.3339
125;-4.3316;5.4790;0.0000;-0.0830;0.3223
126;-4.0294;5.4750;0.0000;-0.0829;0.3274
127;-3.7237;5.4725;0.0000;-0.0706;0.3480
128;-3.4148;5.4716;0.0000;-0.0822;0.3461
129;-3.1043;5.4714;0.0000;-0.0948;0.3379
130;-2.7930;5.4713;0.0000;-0.0781;0.3235
131;-2.4812;5.4713;0.0000;-0.0590;0.3076
132;-2.1694;5.4713;0.0000;-0.0636;0.2936
133;-1.8575;5.4713;0.0000;-0.0541;0.2757
134;-1.5456;5.4714;0.0000;-0.0439;0.2844
135;-1.2336;5.4715;0.0000;-0.0573;0.2961
136;-0.9217;5.4715;0.0000;-0.0752;0.2899
137;-0.6098;5.4715;0.0000;-0.0797;0.2922
138;-0.2980;5.4716;0.0000;-0.0792;0.2908
139;0.0139;5.4717;0.0000;-0.0922;0.2723
140;0.3257;5.4719;0.0000;-0.1018;0.2583
141;0.6375;5.4720;0.0000;-0.1003;0.2479
142;0.9493;5.4722;0.0000;-0.0985;0.2276
143;1.2611;5.4722;0.0000;-0.1087;0.2386
144;1.5729;5.4723;0.0000;-0.1203;0.2487
145;1.8846;5.4724;0.0000;-0.1208;0.2319
146;2.1962;5.4726;0.0000;-0.1045;0.2558
147;2.5071;5.4728;0.0000;-0.0910;0.2790
148;2.8149;5.4733;0.0000;-0.1258;0.2508
149;3.1141;5.4744;0.0000;-0.1417;0.2219
150;3.3945;5.4768;0.0000;-0.1168;0.2162
151;3.6366;5.4688;0.0000;-0.0832;0.2182
152;-4.4283;5.1961;0.0000;-0.0808;0.3454
153;-4.1545;5.1947;0.0000;-0.0800;0.3410
154;-3.8619;5.1902;0.0000;-0.0635;0.3468
155;-3.5590;5.1886;0.0000;-0.0772;0.3532
156;-3.2512;5.1883;0.0000;-0.1017;0.3496
157;-2.9410;5.1881;0.0000;-0.0770;0.3433
158;-2.6297;5.1881;0.0000;-0.0552;0.3246
159;-2.3181;5.1881;0.0000;-0.0553;0.3034
160;-2.0063;5.1881;0.0000;-0.0602;0.2951
161;-1.6945;5.1882;0.0000;-0.0505;0.2941
162;-1.3827;5.1881;0.0000;-0.0545;0.3109
163;-1.0709;5.1881;0.0000;-0.0832;0.3154
164;-0.7592;5.1880;0.0000;-0.0900;0.2899
165;-0.4474;5.1880;0.0000;-0.0636;0.2774
166;-0.1356;5.1881;0.0000;-0.0749;0.2786
167;0.1761;5.1882;0.0000;-0.1200;0.2741
168;0.4877;5.1883;0.0000;-0.1158;0.2745
169;0.7994;5.1885;0.0000;-0.0906;0.2772
170;1.1111;5.1886;0.0000;-0.0920;0.2667
171;1.4228;5.1884;0.0000;-0.1169;0.2584
172;1.7344;5.1885;0.0000;-0.1395;0.2530
173;2.0459;5.1886;0.0000;-0.1224;0.2500
174;2.3570;5.1885;0.0000;-0.0870;0.2602
175;2.6667;5.1886;0.0000;-0.0962;0.2657
176;2.9718;5.1891;0.0000;-0.1284;0.2577
177;3.2691;5.1895;0.0000;-0.1161;0.2546
178;3.5608;5.1912;0.0000;-0.0967;0.2528
179;-4.3094;4.9213;0.0000;-0.0768;0.3561
180;-4.0100;4.9115;0.0000;-0.0673;0.3652
181;-3.7083;4.9087;0.0000;-0.0686;0.3579
182;-3.4021;4.9083;0.0000;-0.0927;0.3475
183;-3.0930;4.9083;0.0000;-0.0774;0.3427
184;-2.7823;4.9082;0.0000;-0.0496;0.3431
185;-2.4709;4.9083;0.0000;-0.0597;0.3420
186;-2.1593;4.9083;0.0000;-0.0692;0.3468
187;-1.8477;4.9082;0.0000;-0.0683;0.3509
188;-1.5359;4.9082;0.0000;-0.0543;0.3371
189;-1.2241;4.9081;0.0000;-0.0621;0.3181
190;-0.9124;4.9081;0.0000;-0.0921;0.2891
191;-0.6007;4.9081;0.0000;-0.0886;0.2519
192;-0.2890;4.9081;0.0000;-0.0658;0.2669
193;0.0228;4.9081;0.0000;-0.0912;0.3003
194;0.3343;4.9083;0.0000;-0.1406;0.2901
195;0.6459;4.9082;0.0000;-0.0981;0.2956
196;0.9576;4.9082;0.0000;-0.0695;0.3215
197;1.2694;4.9083;0.0000;-0.0996;0.3013
198;1.5809;4.9083;0.0000;-0.1384;0.2698
199;1.8924;4.9084;0.0000;-0.1310;0.2637
200;2.2037;4.9084;0.0000;-0.1051;0.2515
201;2.5140;4.9083;0.0000;-0.1055;0.2455
202;2.8205;4.9082;0.0000;-0.1117;0.2679
203;3.1173;4.9084;0.0000;-0.1035;0.2795
204;3.3950;4.9060;0.0000;-0.0938;0.2753
205;3.6342;4.9066;0.0000;-0.1148;0.2738
206;-4.4025;4.6621;0.0000;-0.0717;0.3400
207;-4.1432;4.6361;0.0000;-0.0599;0.3637
208;-3.8547;4.6315;0.0000;-0.0626;0.3648
209;-3.5535;4.6311;0.0000;-0.0797;0.3480
210;-3.2464;4.6314;0.0000;-0.0821;0.3476
211;-2.9366;4.6315;0.0000;-0.0524;0.3545
212;-2.6256;4.6315;0.0000;-0.0568;0.3595
213;-2.3141;4.6315;0.0000;-0.0640;0.3511
214;-2.0024;4.6314;0.0000;-0.0684;0.3462
215;-1.6908;4.6314;0.0000;-0.0711;0.3569
216;-1.3791;4.6314;0.0000;-0.0643;0.3342
217;-1.0673;4.6314;0.0000;-0.0694;0.3027
218;-0.7556;4.6315;0.0000;-0.1061;0.2984
219;-0.4441;4.6316;0.0000;-0.1008;0.2933
220;-0.1324;4.6313;0.0000;-0.0615;0.2989
221;0.1794;4.6313;0.0000;-0.1017;0.3164
222;0.4909;4.6314;0.0000;-0.1257;0.3180
223;0.8025;4.6314;0.0000;-0.0842;0.3093
224;1.1143;4.6313;0.0000;-0.0859;0.3157
225;1.4259;4.6314;0.0000;-0.1195;0.3075
226;1.7374;4.6315;0.0000;-0.1336;0.2863
227;2.0488;4.6315;0.0000;-0.1060;0.2817
228;2.3598;4.6314;0.0000;-0.1137;0.2840
229;2.6686;4.6312;0.0000;-0.1230;0.2882
230;2.9722;4.6312;0.0000;-0.1020;0.2915
231;3.2676;4.6311;0.0000;-0.0840;0.2941
232;3.5598;4.6196;0.0000;-0.1023;0.2949
233;-4.3272;4.3711;0.0000;-0.0804;0.3575
234;-4.0156;4.3579;0.0000;-0.0500;0.3465
235;-3.7089;4.3565;0.0000;-0.0562;0.3360
236;-3.4012;4.3568;0.0000;-0.0843;0.3419
237;-3.0917;4.3570;0.0000;-0.0774;0.3470
238;-2.7810;4.3571;0.0000;-0.0608;0.3408
239;-2.4697;4.3571;0.0000;-0.0679;0.3318
240;-2.1581;4.3572;0.0000;-0.0605;0.3195
241;-1.8464;4.3571;0.0000;-0.0679;0.3268
242;-1.5347;4.3570;0.0000;-0.0849;0.3443
243;-1.2230;4.3571;0.0000;-0.0640;0.3365
244;-0.9113;4.3571;0.0000;-0.0718;0.3298
245;-0.5996;4.3571;0.0000;-0.1008;0.3335
246;-0.2880;4.3570;0.0000;-0.0872;0.3090
247;0.0237;4.3570;0.0000;-0.0738;0.2912
248;0.3354;4.3569;0.0000;-0.1153;0.3099
249;0.6470;4.3570;0.0000;-0.1118;0.3120
250;0.9586;4.3569;0.0000;-0.0957;0.2935
251;1.2702;4.3568;0.0000;-0.1019;0.2970
252;1.5818;4.3570;0.0000;-0.1204;0.3053
253;1.8933;4.3571;0.0000;-0.1178;0.2999
254;2.2045;4.3570;0.0000;-0.1027;0.2988
255;2.5143;4.3567;0.0000;-0.1168;0.2965
256;2.8194;4.3565;0.0000;-0.1034;0.2870
257;3.1126;4.3569;0.0000;-0.0912;0.2810
258;3.3843;4.3570;0.0000;-0.0927;0.2812
259;3.6239;4.3271;0.0000;-0.1060;0.2872
260;-4.4120;4.0876;0.0000;-0.0906;0.3802
261;-4.1522;4.0867;0.0000;-0.0671;0.3657
262;-3.8584;4.0842;0.0000;-0.0521;0.3557
263;-3.5545;4.0840;0.0000;-0.0690;0.3504
264;-3.2464;4.0842;0.0000;-0.0910;0.3382
265;-2.9364;4.0843;0.0000;-0.0695;0.3292
266;-2.6253;4.0844;0.0000;-0.0700;0.3320
267;-2.3138;4.0844;0.0000;-0.0634;0.3392
268;-2.0022;4.0844;0.0000;-0.0597;0.3337
269;-1.6905;4.0842;0.0000;-0.0924;0.3218
270;-1.3789;4.0841;0.0000;-0.0892;0.3197
271;-1.0672;4.0842;0.0000;-0.0565;0.3230
272;-0.7554;4.0843;0.0000;-0.0670;0.3196
273;-0.4437;4.0843;0.0000;-0.0876;0.3012
274;-0.1321;4.0843;0.0000;-0.0860;0.2891
275;0.1796;4.0842;0.0000;-0.1003;0.2973
276;0.4912;4.0841;0.0000;-0.1205;0.2956
277;0.8027;4.0842;0.0000;-0.1042;0.2871
278;1.1144;4.0842;0.0000;-0.0959;0.2770
279;1.4260;4.0841;0.0000;-0.1092;0.2768
280;1.7376;4.0842;0.0000;-0.1212;0.2975
281;2.0490;4.0842;0.0000;-0.1067;0.3095
282;2.3597;4.0840;0.0000;-0.1006;0.3053
283;2.6676;4.0834;0.0000;-0.1019;0.2957
284;2.9679;4.0827;0.0000;-0.0952;0.2918
285;3.2545;4.0829;0.0000;-0.0940;0.2913
286;3.5290;4.0848;0.0000;-0.1036;0.2882
287;-4.3296;3.8084;0.0000;-0.0659;0.3502
288;-4.0170;3.8132;0.0000;-0.0756;0.3560
289;-3.7096;3.8124;0.0000;-0.0788;0.3646
290;-3.4014;3.8123;0.0000;-0.0744;0.3756
291;-3.0917;3.8124;0.0000;-0.0674;0.3751
292;-2.7809;3.8124;0.0000;-0.0712;0.3659
293;-2.4696;3.8124;0.0000;-0.0753;0.3512
294;-2.1580;3.8124;0.0000;-0.0595;0.3463
295;-1.8463;3.8124;0.0000;-0.0786;0.3443
296;-1.5347;3.8123;0.0000;-0.1070;0.3272
297;-1.2231;3.8123;0.0000;-0.0664;0.3232
298;-0.9113;3.8123;0.0000;-0.0508;0.3304
299;-0.5995;3.8124;0.0000;-0.0769;0.3270
300;-0.2879;3.8125;0.0000;-0.0995;0.3161
301;0.0237;3.8123;0.0000;-0.0977;0.3147
302;0.3354;3.8123;0.0000;-0.1077;0.3113
303;0.6469;3.8123;0.0000;-0.1105;0.3025
304;0.9586;3.8123;0.0000;-0.0875;0.2984
305;1.2703;3.8123;0.0000;-0.0993;0.2847
306;1.5818;3.8123;0.0000;-0.1281;0.2939
307;1.8933;3.8123;0.0000;-0.1139;0.3225
308;2.2045;3.8121;0.0000;-0.0964;0.3325
309;2.5142;3.8116;0.0000;-0.0982;0.3218
310;2.8188;3.8104;0.0000;-0.1000;0.2995
311;3.1112;3.8090;0.0000;-0.0978;0.2955
312;3.3821;3.8115;0.0000;-0.0916;0.3045
313;3.6225;3.8460;0.0000;-0.1138;0.2993
314;-4.4039;3.5239;0.0000;-0.0478;0.3307
315;-4.1444;3.5407;0.0000;-0.0756;0.3429
316;-3.8551;3.5414;0.0000;-0.0946;0.3497
317;-3.5534;3.5408;0.0000;-0.0824;0.3603
318;-3.2460;3.5407;0.0000;-0.0594;0.3723
319;-2.9361;3.5408;0.0000;-0.0564;0.3765
320;-2.6252;3.5409;0.0000;-0.0775;0.3630
321;-2.3138;3.5409;0.0000;-0.0760;0.3521
322;-2.0022;3.5409;0.0000;-0.0780;0.3494
323;-1.6905;3.5408;0.0000;-0.0980;0.3337
324;-1.3790;3.5408;0.0000;-0.0908;0.3328
325;-1.0672;3.5408;0.0000;-0.0589;0.3346
326;-0.7554;3.5408;0.0000;-0.0701;0.3321
327;-0.4438;3.5409;0.0000;-0.0892;0.3452
328;-0.1321;3.5409;0.0000;-0.0956;0.3333
329;0.1795;3.5408;0.0000;-0.0933;0.3085
330;0.4911;3.5408;0.0000;-0.1123;0.3155
331;0.8027;3.5409;0.0000;-0.1041;0.3289
332;1.1144;3.5409;0.0000;-0.0831;0.3155
333;1.4261;3.5409;0.0000;-0.1253;0.3065
334;1.7375;3.5408;0.0000;-0.1281;0.3224
335;2.0489;3.5407;0.0000;-0.0930;0.3378
336;2.3598;3.5403;0.0000;-0.0956;0.3428
337;2.6683;3.5395;0.0000;-0.1068;0.3321
338;2.9713;3.5379;0.0000;-0.1023;0.3200
339;3.2659;3.5384;0.0000;-0.0965;0.3228
340;3.5570;3.5566;0.0000;-0.0964;0.3187
341;-4.3089;3.2643;0.0000;-0.0653;0.3570
342;-4.0081;3.2687;0.0000;-0.0833;0.3538
343;-3.7063;3.2692;0.0000;-0.0997;0.3486
344;-3.4003;3.2693;0.0000;-0.0829;0.3482
345;-3.0913;3.2694;0.0000;-0.0524;0.3492
346;-2.7806;3.2695;0.0000;-0.0479;0.3564
347;-2.4694;3.2696;0.0000;-0.0743;0.3702
348;-2.1579;3.2696;0.0000;-0.1029;0.3666
349;-1.8464;3.2696;0.0000;-0.0899;0.3380
350;-1.5347;3.2696;0.0000;-0.0841;0.3200
351;-1.2230;3.2696;0.0000;-0.0810;0.3255
352;-0.9114;3.2696;0.0000;-0.0763;0.3232
353;-0.5997;3.2696;0.0000;-0.0854;0.3215
354;-0.2880;3.2696;0.0000;-0.0851;0.3301
355;0.0237;3.2697;0.0000;-0.0846;0.3225
356;0.3353;3.2697;0.0000;-0.0988;0.3207
357;0.6469;3.2696;0.0000;-0.1131;0.3294
358;0.9585;3.2696;0.0000;-0.1024;0.3355
359;1.2702;3.2697;0.0000;-0.1012;0.3342
360;1.5817;3.2697;0.0000;-0.1318;0.3249
361;1.8932;3.2695;0.0000;-0.1074;0.3304
362;2.2045;3.2693;0.0000;-0.0913;0.3276
363;2.5145;3.2687;0.0000;-0.1082;0.3240
364;2.8206;3.2677;0.0000;-0.1010;0.3420
365;3.1175;3.2669;0.0000;-0.0954;0.3487
366;3.3957;3.2714;0.0000;-0.1017;0.3412
367;3.6344;3.2764;0.0000;-0.0836;0.3353
368;-4.4300;3.0028;0.0000;-0.0798;0.3435
369;-4.1487;2.9987;0.0000;-0.0741;0.3359
370;-3.8551;2.9979;0.0000;-0.0761;0.3302
371;-3.5529;2.9980;0.0000;-0.0954;0.3355
372;-3.2458;2.9981;0.0000;-0.0930;0.3344
373;-2.9362;2.9983;0.0000;-0.0695;0.3399
374;-2.6252;2.9983;0.0000;-0.0584;0.3589
375;-2.3138;2.9983;0.0000;-0.0900;0.3606
376;-2.0023;2.9984;0.0000;-0.1020;0.3454
377;-1.6906;2.9984;0.0000;-0.0712;0.3394
378;-1.3789;2.9985;0.0000;-0.0807;0.3374
379;-1.0673;2.9984;0.0000;-0.0854;0.3332
380;-0.7556;2.9986;0.0000;-0.0822;0.3258
381;-0.4439;2.9986;0.0000;-0.0937;0.3245
382;-0.1323;2.9986;0.0000;-0.0813;0.3382
383;0.1794;2.9985;0.0000;-0.0752;0.3490
384;0.4911;2.9985;0.0000;-0.0886;0.3407
385;0.8028;2.9985;0.0000;-0.1035;0.3236
386;1.1144;2.9985;0.0000;-0.1118;0.3274
387;1.4260;2.9986;0.0000;-0.1182;0.3404
388;1.7375;2.9985;0.0000;-0.1225;0.3418
389;2.0489;2.9983;0.0000;-0.0995;0.3274
390;2.3599;2.9981;0.0000;-0.0965;0.3030
391;2.6689;2.9975;0.0000;-0.1091;0.2987
392;2.9733;2.9967;0.0000;-0.0946;0.3177
393;3.2707;2.9969;0.0000;-0.0989;0.3312
394;3.5621;2.9987;0.0000;-0.0952;0.3391
395;-4.3082;2.7366;0.0000;-0.0758;0.2980
396;-4.0075;2.7277;0.0000;-0.0648;0.3050
397;-3.7057;2.7266;0.0000;-0.0889;0.3170
398;-3.4000;2.7269;0.0000;-0.1042;0.3205
399;-3.0912;2.7272;0.0000;-0.0925;0.3174
400;-2.7808;2.7272;0.0000;-0.0729;0.3227
401;-2.4695;2.7272;0.0000;-0.0761;0.3291
402;-2.1581;2.7272;0.0000;-0.1116;0.3259
403;-1.8466;2.7273;0.0000;-0.0893;0.3243
404;-1.5349;2.7274;0.0000;-0.0752;0.3242
405;-1.2232;2.7273;0.0000;-0.0872;0.3152
406;-0.9116;2.7274;0.0000;-0.0756;0.3148
407;-0.5998;2.7275;0.0000;-0.0887;0.3320
408;-0.2882;2.7274;0.0000;-0.0915;0.3410
409;0.0234;2.7274;0.0000;-0.0612;0.3443
410;0.3353;2.7274;0.0000;-0.0657;0.3430
411;0.6470;2.7274;0.0000;-0.0910;0.3289
412;0.9586;2.7275;0.0000;-0.1184;0.3237
413;1.2701;2.7275;0.0000;-0.1238;0.3405
414;1.5817;2.7274;0.0000;-0.1198;0.3499
415;1.8932;2.7273;0.0000;-0.1086;0.3381
416;2.2045;2.7272;0.0000;-0.0836;0.3292
417;2.5146;2.7270;0.0000;-0.0956;0.3238
418;2.8206;2.7266;0.0000;-0.1084;0.3146
419;3.1167;2.7265;0.0000;-0.0942;0.3178
420;3.3935;2.7230;0.0000;-0.0959;0.3296
421;3.6300;2.7182;0.0000;-0.0967;0.3283
422;-4.4023;2.4806;0.0000;-0.0798;0.3012
423;-4.1431;2.4582;0.0000;-0.0677;0.3028
424;-3.8540;2.4551;0.0000;-0.0789;0.3058
425;-3.5527;2.4554;0.0000;-0.1034;0.3093
426;-3.2458;2.4559;0.0000;-0.0988;0.3170
427;-2.9361;2.4562;0.0000;-0.0923;0.3081
428;-2.6253;2.4562;0.0000;-0.0815;0.3012
429;-2.3139;2.4562;0.0000;-0.0965;0.3035
430;-2.0024;2.4563;0.0000;-0.1022;0.3033
431;-1.6908;2.4563;0.0000;-0.0800;0.3077
432;-1.3791;2.4564;0.0000;-0.0796;0.3061
433;-1.0674;2.4564;0.0000;-0.0792;0.3012
434;-0.7557;2.4565;0.0000;-0.0823;0.3056
435;-0.4441;2.4564;0.0000;-0.0857;0.3114
436;-0.1324;2.4564;0.0000;-0.0713;0.3217
437;0.1794;2.4563;0.0000;-0.0580;0.3296
438;0.4911;2.4563;0.0000;-0.0845;0.3266
439;0.8027;2.4564;0.0000;-0.1065;0.3277
440;1.1143;2.4564;0.0000;-0.1215;0.3415
441;1.4259;2.4563;0.0000;-0.1204;0.3518
442;1.7374;2.4563;0.0000;-0.1132;0.3360
443;2.0489;2.4562;0.0000;-0.0960;0.3295
444;2.3598;2.4561;0.0000;-0.0876;0.3407
445;2.6682;2.4558;0.0000;-0.1016;0.3380
446;2.9708;2.4556;0.0000;-0.1002;0.3264
447;3.2640;2.4550;0.0000;-0.0886;0.3142
448;3.5538;2.4387;0.0000;-0.0921;0.3159
449;-4.3269;2.1949;0.0000;-0.0883;0.3073
450;-4.0153;2.1848;0.0000;-0.0790;0.3132
451;-3.7086;2.1843;0.0000;-0.0850;0.3037
452;-3.4008;2.1847;0.0000;-0.0959;0.2895
453;-3.0915;2.1851;0.0000;-0.1053;0.2887
454;-2.7809;2.1852;0.0000;-0.1083;0.2926
455;-2.4698;2.1852;0.0000;-0.0896;0.2901
456;-2.1583;2.1853;0.0000;-0.0933;0.2869
457;-1.8466;2.1854;0.0000;-0.0794;0.2934
458;-1.5350;2.1854;0.0000;-0.0770;0.3147
459;-1.2233;2.1854;0.0000;-0.0723;0.3270
460;-0.9116;2.1855;0.0000;-0.0774;0.3240
461;-0.5999;2.1855;0.0000;-0.0914;0.3159
462;-0.2882;2.1854;0.0000;-0.0806;0.3172
463;0.0234;2.1853;0.0000;-0.0641;0.3240
464;0.3353;2.1853;0.0000;-0.0708;0.3228
465;0.6469;2.1853;0.0000;-0.1016;0.3269
466;0.9585;2.1854;0.0000;-0.1226;0.3287
467;1.2700;2.1853;0.0000;-0.1176;0.3248
468;1.5816;2.1852;0.0000;-0.1107;0.3250
469;1.8931;2.1852;0.0000;-0.1085;0.3200
470;2.2043;2.1851;0.0000;-0.0883;0.3238
471;2.5140;2.1848;0.0000;-0.0849;0.3335
472;2.8186;2.1845;0.0000;-0.0913;0.3258
473;3.1106;2.1843;0.0000;-0.0876;0.3216
474;3.3803;2.1839;0.0000;-0.0930;0.3315
475;3.6197;2.1480;0.0000;-0.0930;0.3355
476;-4.4113;1.9188;0.0000;-0.0988;0.2972
477;-4.1512;1.9143;0.0000;-0.0965;0.3074
478;-3.8576;1.9138;0.0000;-0.0823;0.3106
479;-3.5540;1.9139;0.0000;-0.0817;0.3003
480;-3.2462;1.9142;0.0000;-0.1041;0.2913
481;-2.9363;1.9143;0.0000;-0.1130;0.2897
482;-2.6254;1.9143;0.0000;-0.0976;0.2869
483;-2.3140;1.9143;0.0000;-0.0948;0.2924
484;-2.0025;1.9144;0.0000;-0.0936;0.3031
485;-1.6909;1.9144;0.0000;-0.0807;0.3112
486;-1.3792;1.9143;0.0000;-0.0716;0.3201
487;-1.0674;1.9144;0.0000;-0.0586;0.3324
488;-0.7556;1.9144;0.0000;-0.0751;0.3433
489;-0.4440;1.9144;0.0000;-0.0902;0.3521
490;-0.1324;1.9143;0.0000;-0.0848;0.3406
491;0.1793;1.9143;0.0000;-0.0755;0.3159
492;0.4910;1.9143;0.0000;-0.0887;0.3160
493;0.8027;1.9143;0.0000;-0.1105;0.3260
494;1.1142;1.9143;0.0000;-0.1184;0.3286
495;1.4258;1.9142;0.0000;-0.0977;0.3268
496;1.7374;1.9142;0.0000;-0.1017;0.3352
497;2.0488;1.9142;0.0000;-0.0993;0.3403
498;2.3596;1.9139;0.0000;-0.0863;0.3325
499;2.6674;1.9132;0.0000;-0.0921;0.3380
500;2.9674;1.9122;0.0000;-0.0857;0.3347
501;3.2530;1.9116;0.0000;-0.0846;0.3346
502;3.5238;1.9155;0.0000;-0.0968;0.3461
503;-4.3269;1.6347;0.0000;-0.1007;0.3043
504;-4.0153;1.6430;0.0000;-0.1000;0.3110
505;-3.7086;1.6433;0.0000;-0.0831;0.3192
506;-3.4008;1.6432;0.0000;-0.1004;0.3146
507;-3.0915;1.6433;0.0000;-0.1191;0.2915
508;-2.7810;1.6434;0.0000;-0.1051;0.2749
509;-2.4697;1.6434;0.0000;-0.0963;0.2862
510;-2.1583;1.6434;0.0000;-0.0981;0.3153
511;-1.8467;1.6434;0.0000;-0.0802;0.3219
512;-1.5350;1.6434;0.0000;-0.0755;0.3091
513;-1.2233;1.6433;0.0000;-0.0744;0.3109
514;-0.9116;1.6434;0.0000;-0.0712;0.3245
515;-0.5999;1.6433;0.0000;-0.0716;0.3405
516;-0.2882;1.6432;0.0000;-0.0749;0.3397
517;0.0235;1.6433;0.0000;-0.0816;0.3154
518;0.3351;1.6433;0.0000;-0.0940;0.3009
519;0.6468;1.6433;0.0000;-0.1044;0.3130
520;0.9584;1.6433;0.0000;-0.1094;0.3300
521;1.2700;1.6432;0.0000;-0.0908;0.3327
522;1.5817;1.6432;0.0000;-0.0900;0.3314
523;1.8932;1.6431;0.0000;-0.1067;0.3486
524;2.2044;1.6429;0.0000;-0.0938;0.3579
525;2.5141;1.6424;0.0000;-0.0906;0.3423
526;2.8188;1.6410;0.0000;-0.0926;0.3374
527;3.1119;1.6394;0.0000;-0.0836;0.3453
528;3.3847;1.6414;0.0000;-0.0979;0.3396
529;3.6266;1.6901;0.0000;-0.1007;0.3328
530;-4.4006;1.3457;0.0000;-0.1046;0.2981
531;-4.1426;1.3693;0.0000;-0.1003;0.2924
532;-3.8539;1.3722;0.0000;-0.0923;0.2918
533;-3.5527;1.3722;0.0000;-0.0972;0.2919
534;-3.2457;1.3724;0.0000;-0.1267;0.2825
535;-2.9362;1.3726;0.0000;-0.1154;0.2786
536;-2.6254;1.3725;0.0000;-0.1062;0.2864
537;-2.3141;1.3724;0.0000;-0.0993;0.3014
538;-2.0026;1.3724;0.0000;-0.0754;0.3140
539;-1.6909;1.3724;0.0000;-0.0719;0.3018
540;-1.3792;1.3724;0.0000;-0.0718;0.2851
541;-1.0675;1.3724;0.0000;-0.0901;0.2987
542;-0.7559;1.3723;0.0000;-0.0782;0.3111
543;-0.4442;1.3722;0.0000;-0.0586;0.3000
544;-0.1324;1.3722;0.0000;-0.0599;0.2900
545;0.1794;1.3723;0.0000;-0.0757;0.2886
546;0.4911;1.3724;0.0000;-0.1070;0.3003
547;0.8026;1.3723;0.0000;-0.1123;0.3143
548;1.1142;1.3722;0.0000;-0.0919;0.3128
549;1.4259;1.3722;0.0000;-0.0910;0.3127
550;1.7375;1.3721;0.0000;-0.1080;0.3124
551;2.0489;1.3719;0.0000;-0.0980;0.3148
552;2.3598;1.3716;0.0000;-0.0921;0.3251
553;2.6685;1.3706;0.0000;-0.0938;0.3182
554;2.9716;1.3687;0.0000;-0.0851;0.3244
555;3.2664;1.3693;0.0000;-0.0943;0.3248
556;3.5581;1.3877;0.0000;-0.1077;0.3098
557;-4.3069;1.0892;0.0000;-0.1090;0.2806
558;-4.0069;1.0992;0.0000;-0.0941;0.2628
559;-3.7055;1.1008;0.0000;-0.0871;0.2465
560;-3.3998;1.1013;0.0000;-0.1158;0.2532
561;-3.0912;1.1015;0.0000;-0.1254;0.2714
562;-2.7809;1.1016;0.0000;-0.1088;0.2810
563;-2.4698;1.1015;0.0000;-0.1086;0.2871
564;-2.1584;1.1014;0.0000;-0.0749;0.2923
565;-1.8467;1.1014;0.0000;-0.0663;0.2880
566;-1.5350;1.1015;0.0000;-0.0780;0.2769
567;-1.2233;1.1015;0.0000;-0.0827;0.2788
568;-0.9117;1.1014;0.0000;-0.0872;0.2892
569;-0.6000;1.1014;0.0000;-0.0678;0.2823
570;-0.2882;1.1013;0.0000;-0.0678;0.2688
571;0.0235;1.1014;0.0000;-0.0706;0.2753
572;0.3352;1.1015;0.0000;-0.0813;0.2946
573;0.6468;1.1013;0.0000;-0.1070;0.3070
574;0.9584;1.1013;0.0000;-0.1038;0.2975
575;1.2701;1.1012;0.0000;-0.0958;0.2914
576;1.5817;1.1011;0.0000;-0.1075;0.2927
577;1.8932;1.1011;0.0000;-0.0950;0.2804
578;2.2046;1.1008;0.0000;-0.0954;0.2802
579;2.5147;1.1001;0.0000;-0.1037;0.2944
580;2.8212;1.0983;0.0000;-0.0853;0.3077
581;3.1180;1.0960;0.0000;-0.0751;0.2996
582;3.3940;1.1020;0.0000;-0.1068;0.2839
583;3.6320;1.1137;0.0000;-0.1109;0.2815
584;-4.4285;0.8212;0.0000;-0.1153;0.2668
585;-4.1476;0.8277;0.0000;-0.1049;0.2610
586;-3.8545;0.8294;0.0000;-0.0983;0.2488
587;-3.5526;0.8301;0.0000;-0.0990;0.2560
588;-3.2457;0.8305;0.0000;-0.1194;0.2654
589;-2.9361;0.8307;0.0000;-0.1012;0.2652
590;-2.6253;0.8307;0.0000;-0.1078;0.2621
591;-2.3141;0.8306;0.0000;-0.0972;0.2628
592;-2.0025;0.8305;0.0000;-0.0676;0.2703
593;-1.6908;0.8306;0.0000;-0.0861;0.2670
594;-1.3792;0.8306;0.0000;-0.0827;0.2650
595;-1.0675;0.8305;0.0000;-0.0729;0.2640
596;-0.7557;0.8305;0.0000;-0.0714;0.2683
597;-0.4440;0.8305;0.0000;-0.0805;0.2694
598;-0.1324;0.8305;0.0000;-0.0823;0.2754
599;0.1793;0.8305;0.0000;-0.0690;0.2916
600;0.4911;0.8304;0.0000;-0.0749;0.2886
601;0.8027;0.8303;0.0000;-0.1074;0.2875
602;1.1143;0.8304;0.0000;-0.1062;0.2959
603;1.4259;0.8303;0.0000;-0.1054;0.2950
604;1.7375;0.8302;0.0000;-0.0973;0.2797
605;2.0491;0.8301;0.0000;-0.0885;0.2603
606;2.3603;0.8296;0.0000;-0.1017;0.2618
607;2.6704;0.8281;0.0000;-0.0948;0.2812
608;2.9776;0.8245;0.0000;-0.0751;0.2896
609;3.2783;0.8218;0.0000;-0.0873;0.2878
610;3.5672;0.8307;0.0000;-0.1233;0.2834
611;-4.3074;0.5621;0.0000;-0.1082;0.2433
612;-4.0070;0.5584;0.0000;-0.1085;0.2682
613;-3.7056;0.5588;0.0000;-0.1043;0.2886
614;-3.3999;0.5593;0.0000;-0.1080;0.2767
615;-3.0912;0.5597;0.0000;-0.1019;0.2712
616;-2.7807;0.5598;0.0000;-0.0918;0.2706
617;-2.4696;0.5598;0.0000;-0.1072;0.2508
618;-2.1582;0.5597;0.0000;-0.0900;0.2365
619;-1.8466;0.5597;0.0000;-0.0873;0.2423
620;-1.5350;0.5598;0.0000;-0.1002;0.2496
621;-1.2234;0.5598;0.0000;-0.0759;0.2506
622;-0.9117;0.5597;0.0000;-0.0626;0.2505
623;-0.5999;0.5596;0.0000;-0.0686;0.2607
624;-0.2882;0.5596;0.0000;-0.0773;0.2797
625;0.0235;0.5596;0.0000;-0.0837;0.2876
626;0.3352;0.5596;0.0000;-0.0762;0.2759
627;0.6469;0.5595;0.0000;-0.0940;0.2677
628;0.9584;0.5594;0.0000;-0.1095;0.2819
629;1.2701;0.5593;0.0000;-0.0950;0.2837
630;1.5817;0.5593;0.0000;-0.0921;0.2801
631;1.8934;0.5594;0.0000;-0.0889;0.2851
632;2.2050;0.5592;0.0000;-0.0896;0.2753
633;2.5168;0.5584;0.0000;-0.0875;0.2660
634;2.8295;0.5564;0.0000;-0.0853;0.2689
635;3.1454;0.5536;0.0000;-0.0859;0.2725
636;3.4712;0.5618;0.0000;-0.1166;0.2666
637;-4.4028;0.3025;0.0000;-0.1094;0.2398
638;-4.1434;0.2872;0.0000;-0.1000;0.2405
639;-3.8541;0.2869;0.0000;-0.1031;0.2591
640;-3.5527;0.2879;0.0000;-0.1031;0.2634
641;-3.2457;0.2886;0.0000;-0.1142;0.2540
642;-2.9361;0.2889;0.0000;-0.1021;0.2496
643;-2.6253;0.2890;0.0000;-0.1064;0.2502
644;-2.3140;0.2890;0.0000;-0.0991;0.2451
645;-2.0024;0.2889;0.0000;-0.0847;0.2334
646;-1.6908;0.2890;0.0000;-0.0952;0.2396
647;-1.3792;0.2890;0.0000;-0.0860;0.2532
648;-1.0675;0.2889;0.0000;-0.0668;0.2499
649;-0.7558;0.2888;0.0000;-0.0688;0.2423
650;-0.4441;0.2887;0.0000;-0.0746;0.2575
651;-0.1324;0.2887;0.0000;-0.0832;0.2751
652;0.1793;0.2887;0.0000;-0.0806;0.2797
653;0.4910;0.2887;0.0000;-0.0829;0.2747
654;0.8027;0.2886;0.0000;-0.1000;0.2649
655;1.1143;0.2885;0.0000;-0.0997;0.2632
656;1.4259;0.2885;0.0000;-0.0927;0.2647
657;1.7376;0.2884;0.0000;-0.0804;0.2806
658;2.0493;0.2883;0.0000;-0.0836;0.3010
659;2.3612;0.2881;0.0000;-0.0887;0.2921
660;2.6736;0.2874;0.0000;-0.0933;0.2734
661;2.9876;0.2860;0.0000;-0.0960;0.2721
662;3.3026;0.2865;0.0000;-0.1013;0.2769
663;3.6043;0.3066;0.0000;-0.1158;0.2675
664;-4.3279;0.0204;0.0000;-0.0922;0.2425
665;-4.0155;0.0163;0.0000;-0.0977;0.2316
666;-3.7084;0.0170;0.0000;-0.1097;0.2145
667;-3.4007;0.0176;0.0000;-0.1187;0.2240
668;-3.0914;0.0181;0.0000;-0.1084;0.2453
669;-2.7808;0.0182;0.0000;-0.1091;0.2505
670;-2.4697;0.0181;0.0000;-0.1133;0.2464
671;-2.1583;0.0181;0.0000;-0.0934;0.2418
672;-1.8466;0.0181;0.0000;-0.0852;0.2484
673;-1.5350;0.0182;0.0000;-0.0852;0.2573
674;-1.2233;0.0181;0.0000;-0.0698;0.2550
675;-0.9116;0.0180;0.0000;-0.0704;0.2571
676;-0.5999;0.0180;0.0000;-0.0703;0.2557
677;-0.2881;0.0179;0.0000;-0.0794;0.2481
678;0.0235;0.0178;0.0000;-0.0837;0.2543
679;0.3352;0.0178;0.0000;-0.0924;0.2733
680;0.6468;0.0178;0.0000;-0.0966;0.2845
681;0.9584;0.0177;0.0000;-0.0893;0.2820
682;1.2701;0.0176;0.0000;-0.0950;0.2777
683;1.5818;0.0175;0.0000;-0.0801;0.2693
684;1.8935;0.0175;0.0000;-0.0816;0.2667
685;2.2054;0.0174;0.0000;-0.0970;0.2703
686;2.5178;0.0173;0.0000;-0.0980;0.2716
687;2.8324;0.0170;0.0000;-0.0942;0.2709
688;3.1521;0.0169;0.0000;-0.0935;0.2734
689;3.4821;0.0157;0.0000;-0.1068;0.2797
690;-4.4069;-0.2577;0.0000;-0.0803;0.2465
691;-4.1491;-0.2554;0.0000;-0.0921;0.2401
692;-3.8565;-0.2532;0.0000;-0.1117;0.2215
693;-3.5535;-0.2529;0.0000;-0.1243;0.2006
694;-3.2460;-0.2528;0.0000;-0.1156;0.2209
695;-2.9361;-0.2527;0.0000;-0.1113;0.2468
696;-2.6253;-0.2526;0.0000;-0.1162;0.2401
697;-2.3140;-0.2526;0.0000;-0.1028;0.2316
698;-2.0024;-0.2527;0.0000;-0.0866;0.2434
699;-1.6908;-0.2527;0.0000;-0.0845;0.2512
700;-1.3792;-0.2527;0.0000;-0.0737;0.2456
701;-1.0674;-0.2528;0.0000;-0.0656;0.2550
702;-0.7557;-0.2529;0.0000;-0.0737;0.2648
703;-0.4439;-0.2529;0.0000;-0.0710;0.2532
704;-0.1322;-0.2530;0.0000;-0.0811;0.2367
705;0.1794;-0.2530;0.0000;-0.0955;0.2381
706;0.4910;-0.2531;0.0000;-0.1018;0.2687
707;0.8027;-0.2533;0.0000;-0.0742;0.3041
708;1.1145;-0.2533;0.0000;-0.0783;0.2934
709;1.4260;-0.2533;0.0000;-0.0934;0.2629
710;1.7377;-0.2533;0.0000;-0.0896;0.2548
711;2.0495;-0.2534;0.0000;-0.1017;0.2550
712;2.3614;-0.2534;0.0000;-0.0946;0.2702
713;2.6743;-0.2533;0.0000;-0.0894;0.2892
714;2.9884;-0.2530;0.0000;-0.0987;0.2793
715;3.3018;-0.2533;0.0000;-0.1014;0.2643
716;3.6033;-0.2771;0.0000;-0.1188;0.2694
717;-4.3235;-0.5383;0.0000;-0.0992;0.2503
718;-4.0126;-0.5236;0.0000;-0.1109;0.2415
719;-3.7072;-0.5231;0.0000;-0.1145;0.2379
720;-3.4003;-0.5233;0.0000;-0.1077;0.2380
721;-3.0911;-0.5234;0.0000;-0.1142;0.2310
722;-2.7807;-0.5234;0.0000;-0.1246;0.2302
723;-2.4697;-0.5234;0.0000;-0.1142;0.2309
724;-2.1582;-0.5235;0.0000;-0.0969;0.2307
725;-1.8467;-0.5236;0.0000;-0.0828;0.2424
726;-1.5350;-0.5235;0.0000;-0.0715;0.2538
727;-1.2232;-0.5235;0.0000;-0.0637;0.2488
728;-0.9115;-0.5237;0.0000;-0.0821;0.2379
729;-0.5999;-0.5238;0.0000;-0.0874;0.2283
730;-0.2882;-0.5237;0.0000;-0.0647;0.2207
731;0.0236;-0.5238;0.0000;-0.0616;0.2274
732;0.3353;-0.5239;0.0000;-0.0977;0.2367
733;0.6469;-0.5241;0.0000;-0.0978;0.2306
734;0.9585;-0.5243;0.0000;-0.0701;0.2329
735;1.2703;-0.5242;0.0000;-0.0796;0.2453
736;1.5820;-0.5241;0.0000;-0.0962;0.2575
737;1.8936;-0.5242;0.0000;-0.1087;0.2682
738;2.2055;-0.5242;0.0000;-0.0952;0.2736
739;2.5179;-0.5242;0.0000;-0.0737;0.2763
740;2.8317;-0.5240;0.0000;-0.0985;0.2714
741;3.1478;-0.5246;0.0000;-0.1064;0.2592
742;3.4692;-0.5282;0.0000;-0.1097;0.2574
743;-4.3973;-0.8288;0.0000;-0.1166;0.2344
744;-4.1373;-0.7947;0.0000;-0.1151;0.2488
745;-3.8509;-0.7936;0.0000;-0.1148;0.2574
746;-3.5513;-0.7940;0.0000;-0.1036;0.2584
747;-3.2451;-0.7942;0.0000;-0.1075;0.2427
748;-2.9358;-0.7942;0.0000;-0.1216;0.2215
749;-2.6252;-0.7942;0.0000;-0.1188;0.2254
750;-2.3139;-0.7942;0.0000;-0.1098;0.2265
751;-2.0025;-0.7942;0.0000;-0.0970;0.2191
752;-1.6909;-0.7944;0.0000;-0.0742;0.2359
753;-1.3791;-0.7944;0.0000;-0.0525;0.2527
754;-1.0673;-0.7944;0.0000;-0.0585;0.2456
755;-0.7556;-0.7945;0.0000;-0.0972;0.2342
756;-0.4440;-0.7944;0.0000;-0.0898;0.2222
757;-0.1323;-0.7944;0.0000;-0.0539;0.2226
758;0.1795;-0.7946;0.0000;-0.0724;0.2455
759;0.4912;-0.7947;0.0000;-0.0833;0.2430
760;0.8028;-0.7948;0.0000;-0.0799;0.1969
761;1.1146;-0.7949;0.0000;-0.0852;0.1864
762;1.4262;-0.7949;0.0000;-0.1014;0.2242
763;1.7378;-0.7950;0.0000;-0.1120;0.2478
764;2.0494;-0.7951;0.0000;-0.1108;0.2581
765;2.3613;-0.7951;0.0000;-0.0741;0.2500
766;2.6738;-0.7951;0.0000;-0.0682;0.2272
767;2.9859;-0.7957;0.0000;-0.1062;0.2274
768;3.2942;-0.8000;0.0000;-0.1031;0.2450
769;3.5808;-0.7835;0.0000;-0.1134;0.2504
770;-4.2926;-1.0650;0.0000;-0.1240;0.2485
771;-3.9999;-1.0657;0.0000;-0.1184;0.2439
772;-3.7025;-1.0656;0.0000;-0.1005;0.2350
773;-3.3985;-1.0653;0.0000;-0.0956;0.2273
774;-3.0905;-1.0650;0.0000;-0.1114;0.2156
775;-2.7805;-1.0649;0.0000;-0.1161;0.2253
776;-2.4695;-1.0649;0.0000;-0.1190;0.2480
777;-2.1582;-1.0649;0.0000;-0.1064;0.2388
778;-1.8466;-1.0650;0.0000;-0.0868;0.2181
779;-1.5350;-1.0651;0.0000;-0.0663;0.2255
780;-1.2232;-1.0652;0.0000;-0.0473;0.2518
781;-0.9114;-1.0653;0.0000;-0.0648;0.2575
782;-0.5997;-1.0653;0.0000;-0.0947;0.2499
783;-0.2881;-1.0652;0.0000;-0.0718;0.2462
784;0.0237;-1.0653;0.0000;-0.0722;0.2367
785;0.3353;-1.0656;0.0000;-0.0811;0.2378
786;0.6471;-1.0656;0.0000;-0.0685;0.2388
787;0.9588;-1.0655;0.0000;-0.0868;0.2248
788;1.2704;-1.0656;0.0000;-0.1064;0.2297
789;1.5820;-1.0657;0.0000;-0.0996;0.2468
790;1.8937;-1.0658;0.0000;-0.1025;0.2361
791;2.2056;-1.0659;0.0000;-0.1111;0.2202
792;2.5181;-1.0657;0.0000;-0.0800;0.2251
793;2.8328;-1.0657;0.0000;-0.0866;0.2376
794;3.1532;-1.0667;0.0000;-0.1016;0.2398
795;3.4918;-1.0707;0.0000;-0.0924;0.2370
796;-4.3962;-1.2998;0.0000;-0.1114;0.2789
797;-4.1361;-1.3362;0.0000;-0.1173;0.2526
798;-3.8500;-1.3378;0.0000;-0.1105;0.2330
799;-3.5508;-1.3368;0.0000;-0.0958;0.2286
800;-3.2448;-1.3361;0.0000;-0.0990;0.2280
801;-2.9356;-1.3357;0.0000;-0.1082;0.2343
802;-2.6250;-1.3358;0.0000;-0.1158;0.2425
803;-2.3138;-1.3358;0.0000;-0.1118;0.2496
804;-2.0023;-1.3357;0.0000;-0.0906;0.2414
805;-1.6907;-1.3358;0.0000;-0.0843;0.2360
806;-1.3790;-1.3360;0.0000;-0.0731;0.2458
807;-1.0673;-1.3361;0.0000;-0.0537;0.2496
808;-0.7555;-1.3361;0.0000;-0.0708;0.2470
809;-0.4438;-1.3361;0.0000;-0.0847;0.2512
810;-0.1322;-1.3360;0.0000;-0.0701;0.2539
811;0.1796;-1.3362;0.0000;-0.0757;0.2424
812;0.4913;-1.3363;0.0000;-0.0799;0.2408
813;0.8029;-1.3363;0.0000;-0.0812;0.2575
814;1.1146;-1.3364;0.0000;-0.0928;0.2656
815;1.4263;-1.3365;0.0000;-0.1030;0.2610
816;1.7379;-1.3367;0.0000;-0.0932;0.2584
817;2.0497;-1.3366;0.0000;-0.1064;0.2442
818;2.3614;-1.3365;0.0000;-0.1135;0.2382
819;2.6735;-1.3363;0.0000;-0.0921;0.2504
820;2.9851;-1.3359;0.0000;-0.0929;0.2470
821;3.2927;-1.3359;0.0000;-0.0879;0.2354
822;3.5767;-1.3583;0.0000;-0.0888;0.2362
823;-4.3229;-1.5903;0.0000;-0.1089;0.2626
824;-4.0118;-1.6076;0.0000;-0.1108;0.2436
825;-3.7066;-1.6082;0.0000;-0.1060;0.2419
826;-3.3998;-1.6073;0.0000;-0.0991;0.2494
827;-3.0909;-1.6067;0.0000;-0.0990;0.2584
828;-2.7805;-1.6065;0.0000;-0.1069;0.2411
829;-2.4694;-1.6066;0.0000;-0.1068;0.2144
830;-2.1580;-1.6066;0.0000;-0.0965;0.2372
831;-1.8464;-1.6066;0.0000;-0.0905;0.2612
832;-1.5348;-1.6067;0.0000;-0.0821;0.2536
833;-1.2231;-1.6068;0.0000;-0.0575;0.2476
834;-0.9113;-1.6069;0.0000;-0.0618;0.2520
835;-0.5996;-1.6069;0.0000;-0.0794;0.2534
836;-0.2879;-1.6069;0.0000;-0.0852;0.2637
837;0.0237;-1.6070;0.0000;-0.0829;0.2833
838;0.3354;-1.6071;0.0000;-0.0800;0.2824
839;0.6471;-1.6072;0.0000;-0.0815;0.2791
840;0.9588;-1.6072;0.0000;-0.0736;0.2768
841;1.2705;-1.6073;0.0000;-0.0983;0.2582
842;1.5821;-1.6074;0.0000;-0.1048;0.2420
843;1.8938;-1.6075;0.0000;-0.0906;0.2404
844;2.2056;-1.6074;0.0000;-0.1113;0.2424
845;2.5177;-1.6074;0.0000;-0.1158;0.2385
846;2.8304;-1.6072;0.0000;-0.0917;0.2255
847;3.1452;-1.6070;0.0000;-0.0878;0.2242
848;3.4663;-1.6127;0.0000;-0.0982;0.2350
849;-4.4063;-1.8708;0.0000;-0.1112;0.2684
850;-4.1490;-1.8744;0.0000;-0.1117;0.2598
851;-3.8563;-1.8782;0.0000;-0.1098;0.2532
852;-3.5533;-1.8782;0.0000;-0.0998;0.2596
853;-3.2457;-1.8777;0.0000;-0.0874;0.2609
854;-2.9358;-1.8775;0.0000;-0.0902;0.2668
855;-2.6250;-1.8773;0.0000;-0.0988;0.2626
856;-2.3137;-1.8773;0.0000;-0.0952;0.2638
857;-2.0021;-1.8774;0.0000;-0.0901;0.2820
858;-1.6905;-1.8775;0.0000;-0.0975;0.2829
859;-1.3789;-1.8776;0.0000;-0.0696;0.2752
860;-1.0671;-1.8777;0.0000;-0.0577;0.2639
861;-0.7554;-1.8778;0.0000;-0.0790;0.2580
862;-0.4437;-1.8777;0.0000;-0.0818;0.2764
863;-0.1320;-1.8778;0.0000;-0.0891;0.2938
864;0.1796;-1.8780;0.0000;-0.0852;0.2815
865;0.4913;-1.8781;0.0000;-0.0819;0.2563
866;0.8030;-1.8782;0.0000;-0.0696;0.2539
867;1.1148;-1.8781;0.0000;-0.0822;0.2577
868;1.4264;-1.8782;0.0000;-0.1055;0.2470
869;1.7380;-1.8782;0.0000;-0.0999;0.2343
870;2.0497;-1.8782;0.0000;-0.1033;0.2247
871;2.3615;-1.8781;0.0000;-0.1141;0.2137
872;2.6734;-1.8781;0.0000;-0.1070;0.2136
873;2.9851;-1.8777;0.0000;-0.0944;0.2293
874;3.2947;-1.8763;0.0000;-0.1007;0.2405
875;3.6006;-1.8712;0.0000;-0.1013;0.2406
876;-4.3267;-2.1494;0.0000;-0.1070;0.2739
877;-4.0153;-2.1471;0.0000;-0.1031;0.2845
878;-3.7084;-2.1485;0.0000;-0.0955;0.2870
879;-3.4006;-2.1485;0.0000;-0.0878;0.2679
880;-3.0911;-2.1483;0.0000;-0.0815;0.2642
881;-2.7805;-2.1483;0.0000;-0.0848;0.2853
882;-2.4692;-2.1482;0.0000;-0.0933;0.3037
883;-2.1578;-2.1484;0.0000;-0.0903;0.3020
884;-1.8461;-2.1484;0.0000;-0.0920;0.2923
885;-1.5346;-2.1485;0.0000;-0.1019;0.2837
886;-1.2229;-2.1486;0.0000;-0.0690;0.2719
887;-0.9112;-2.1486;0.0000;-0.0681;0.2679
888;-0.5995;-2.1486;0.0000;-0.0884;0.2842
889;-0.2878;-2.1487;0.0000;-0.0882;0.2857
890;0.0238;-2.1488;0.0000;-0.0742;0.2567
891;0.3356;-2.1489;0.0000;-0.0688;0.2363
892;0.6473;-2.1489;0.0000;-0.0797;0.2343
893;0.9590;-2.1489;0.0000;-0.0918;0.2407
894;1.2706;-2.1489;0.0000;-0.1028;0.2464
895;1.5822;-2.1490;0.0000;-0.1025;0.2419
896;1.8939;-2.1490;0.0000;-0.0990;0.2418
897;2.2056;-2.1489;0.0000;-0.1100;0.2397
898;2.5176;-2.1489;0.0000;-0.1062;0.2321
899;2.8302;-2.1489;0.0000;-0.0936;0.2347
900;3.1442;-2.1473;0.0000;-0.0991;0.2405
901;3.4644;-2.1357;0.0000;-0.0977;0.2414
902;-4.4010;-2.4311;0.0000;-0.0869;0.2892
903;-4.1425;-2.4181;0.0000;-0.1014;0.3024
904;-3.8540;-2.4186;0.0000;-0.1028;0.3139
905;-3.5526;-2.4192;0.0000;-0.0986;0.3077
906;-3.2455;-2.4191;0.0000;-0.0763;0.3043
907;-2.9357;-2.4191;0.0000;-0.0734;0.2886
908;-2.6248;-2.4192;0.0000;-0.0957;0.2706
909;-2.3135;-2.4192;0.0000;-0.1084;0.2733
910;-2.0020;-2.4193;0.0000;-0.0864;0.2797
911;-1.6903;-2.4194;0.0000;-0.0981;0.2811
912;-1.3788;-2.4194;0.0000;-0.0964;0.2825
913;-1.0671;-2.4195;0.0000;-0.0620;0.2879
914;-0.7553;-2.4195;0.0000;-0.0751;0.2924
915;-0.4437;-2.4196;0.0000;-0.0940;0.2856
916;-0.1320;-2.4196;0.0000;-0.0708;0.2667
917;0.1798;-2.4196;0.0000;-0.0533;0.2581
918;0.4916;-2.4197;0.0000;-0.0723;0.2677
919;0.8032;-2.4197;0.0000;-0.1003;0.2729
920;1.1148;-2.4197;0.0000;-0.1127;0.2697
921;1.4264;-2.4198;0.0000;-0.1048;0.2549
922;1.7380;-2.4198;0.0000;-0.1030;0.2345
923;2.0497;-2.4198;0.0000;-0.1082;0.2398
924;2.3614;-2.4198;0.0000;-0.1063;0.2518
925;2.6732;-2.4200;0.0000;-0.0822;0.2434
926;2.9842;-2.4202;0.0000;-0.0875;0.2361
927;3.2892;-2.4162;0.0000;-0.1186;0.2375
928;3.5714;-2.3862;0.0000;-0.1083;0.2457
929;-4.3062;-2.6922;0.0000;-0.0828;0.2858
930;-4.0065;-2.6904;0.0000;-0.1021;0.2929
931;-3.7053;-2.6904;0.0000;-0.1127;0.3036
932;-3.3996;-2.6903;0.0000;-0.0785;0.3146
933;-3.0907;-2.6902;0.0000;-0.0614;0.3130
934;-2.7802;-2.6900;0.0000;-0.0931;0.2849
935;-2.4692;-2.6900;0.0000;-0.1090;0.2689
936;-2.1577;-2.6902;0.0000;-0.0907;0.2777
937;-1.8461;-2.6902;0.0000;-0.0895;0.2861
938;-1.5345;-2.6903;0.0000;-0.1011;0.2839
939;-1.2229;-2.6904;0.0000;-0.0811;0.2854
940;-0.9111;-2.6904;0.0000;-0.0648;0.2898
941;-0.5994;-2.6905;0.0000;-0.0828;0.2884
942;-0.2878;-2.6905;0.0000;-0.0800;0.2907
943;0.0240;-2.6905;0.0000;-0.0659;0.2947
944;0.3357;-2.6906;0.0000;-0.0712;0.2857
945;0.6474;-2.6906;0.0000;-0.0863;0.2767
946;0.9590;-2.6907;0.0000;-0.0960;0.2776
947;1.2707;-2.6907;0.0000;-0.1038;0.2701
948;1.5823;-2.6906;0.0000;-0.1212;0.2567
949;1.8938;-2.6906;0.0000;-0.1088;0.2455
950;2.2057;-2.6906;0.0000;-0.0989;0.2446
951;2.5182;-2.6907;0.0000;-0.0903;0.2480
952;2.8328;-2.6909;0.0000;-0.0829;0.2547
953;3.1528;-2.6902;0.0000;-0.1117;0.2541
954;3.4865;-2.6772;0.0000;-0.1142;0.2302
955;-4.4257;-2.9514;0.0000;-0.0742;0.3016
956;-4.1463;-2.9592;0.0000;-0.0884;0.2886
957;-3.8538;-2.9614;0.0000;-0.1067;0.2926
958;-3.5522;-2.9614;0.0000;-0.0881;0.3009
959;-3.2451;-2.9612;0.0000;-0.0539;0.3027
960;-2.9355;-2.9611;0.0000;-0.0853;0.3045
961;-2.6247;-2.9609;0.0000;-0.0999;0.3035
962;-2.3134;-2.9610;0.0000;-0.0835;0.2981
963;-2.0018;-2.9612;0.0000;-0.0808;0.3048
964;-1.6902;-2.9612;0.0000;-0.0902;0.2998
965;-1.3786;-2.9612;0.0000;-0.0990;0.2778
966;-1.0670;-2.9613;0.0000;-0.0858;0.2824
967;-0.7553;-2.9614;0.0000;-0.0738;0.2941
968;-0.4435;-2.9615;0.0000;-0.0777;0.2912
969;-0.1319;-2.9615;0.0000;-0.0865;0.2879
970;0.1798;-2.9615;0.0000;-0.0823;0.2791
971;0.4915;-2.9614;0.0000;-0.0787;0.2687
972;0.8031;-2.9615;0.0000;-0.0857;0.2598
973;1.1148;-2.9615;0.0000;-0.0855;0.2498
974;1.4265;-2.9615;0.0000;-0.1086;0.2538
975;1.7381;-2.9615;0.0000;-0.1145;0.2582
976;2.0498;-2.9614;0.0000;-0.0946;0.2407
977;2.3618;-2.9614;0.0000;-0.0968;0.2409
978;2.6744;-2.9613;0.0000;-0.0871;0.2694
979;2.9879;-2.9611;0.0000;-0.0928;0.2699
980;3.2989;-2.9606;0.0000;-0.1114;0.2440
981;3.5797;-2.9607;0.0000;-0.1076;0.2312
982;-4.3048;-3.2202;0.0000;-0.0864;0.3125
983;-4.0056;-3.2310;0.0000;-0.0851;0.3192
984;-3.7047;-3.2326;0.0000;-0.0814;0.3218
985;-3.3992;-3.2324;0.0000;-0.0603;0.3176
986;-3.0905;-3.2321;0.0000;-0.0725;0.3115
987;-2.7802;-3.2320;0.0000;-0.0957;0.3298
988;-2.4691;-3.2319;0.0000;-0.0878;0.3394
989;-2.1576;-3.2321;0.0000;-0.0765;0.3130
990;-1.8460;-3.2322;0.0000;-0.0791;0.3009
991;-1.5343;-3.2322;0.0000;-0.0899;0.3040
992;-1.2227;-3.2322;0.0000;-0.0997;0.3062
993;-0.9111;-3.2323;0.0000;-0.0880;0.3120
994;-0.5994;-3.2324;0.0000;-0.0785;0.3054
995;-0.2877;-3.2324;0.0000;-0.0836;0.2900
996;0.0240;-3.2324;0.0000;-0.0867;0.2846
997;0.3357;-3.2323;0.0000;-0.0629;0.2883
998;0.6474;-3.2324;0.0000;-0.0795;0.2847
999;0.9591;-3.2324;0.0000;-0.1018;0.2706
1000;1.2707;-3.2323;0.0000;-0.1059;0.2591
1001;1.5823;-3.2323;0.0000;-0.1094;0.2615
1002;1.8939;-3.2322;0.0000;-0.0909;0.2643
1003;2.2059;-3.2321;0.0000;-0.0875;0.2617
1004;2.5184;-3.2320;0.0000;-0.0955;0.2691
1005;2.8330;-3.2316;0.0000;-0.0917;0.2707
1006;3.1528;-3.2316;0.0000;-0.1029;0.2724
1007;3.4858;-3.2443;0.0000;-0.0918;0.2856
1008;-4.3976;-3.4753;0.0000;-0.0853;0.3171
1009;-4.1401;-3.5000;0.0000;-0.0837;0.3320
1010;-3.8523;-3.5043;0.0000;-0.0804;0.3398
1011;-3.5517;-3.5040;0.0000;-0.0709;0.3402
1012;-3.2450;-3.5034;0.0000;-0.0572;0.3362
1013;-2.9354;-3.5031;0.0000;-0.0840;0.3376
1014;-2.6247;-3.5031;0.0000;-0.0939;0.3433
1015;-2.3133;-3.5031;0.0000;-0.0747;0.3275
1016;-2.0017;-3.5031;0.0000;-0.0806;0.2969
1017;-1.6901;-3.5032;0.0000;-0.0902;0.2933
1018;-1.3785;-3.5032;0.0000;-0.0956;0.3101
1019;-1.0669;-3.5033;0.0000;-0.0858;0.3193
1020;-0.7552;-3.5034;0.0000;-0.0947;0.3151
1021;-0.4435;-3.5034;0.0000;-0.0891;0.3056
1022;-0.1319;-3.5033;0.0000;-0.0876;0.3006
1023;0.1798;-3.5033;0.0000;-0.0680;0.2975
1024;0.4916;-3.5033;0.0000;-0.0568;0.2969
1025;0.8033;-3.5033;0.0000;-0.0999;0.2957
1026;1.1149;-3.5033;0.0000;-0.1112;0.2938
1027;1.4265;-3.5032;0.0000;-0.1017;0.2841
1028;1.7381;-3.5032;0.0000;-0.1054;0.2748
1029;2.0498;-3.5031;0.0000;-0.0926;0.2864
1030;2.3616;-3.5030;0.0000;-0.0888;0.2937
1031;2.6735;-3.5026;0.0000;-0.0889;0.2810
1032;2.9841;-3.5023;0.0000;-0.0965;0.2759
1033;3.2882;-3.5064;0.0000;-0.0939;0.2845
1034;3.5665;-3.5366;0.0000;-0.0662;0.2949
1035;-4.3226;-3.7623;0.0000;-0.0839;0.3392
1036;-4.0130;-3.7746;0.0000;-0.0826;0.3442
1037;-3.7073;-3.7755;0.0000;-0.0893;0.3426
1038;-3.4001;-3.7749;0.0000;-0.0598;0.3496
1039;-3.0907;-3.7745;0.0000;-0.0519;0.3571
1040;-2.7802;-3.7743;0.0000;-0.0931;0.3556
1041;-2.4690;-3.7742;0.0000;-0.0900;0.3530
1042;-2.1575;-3.7741;0.0000;-0.0776;0.3419
1043;-1.8459;-3.7742;0.0000;-0.0913;0.3217
1044;-1.5343;-3.7742;0.0000;-0.0896;0.3205
1045;-1.2226;-3.7743;0.0000;-0.0749;0.3220
1046;-0.9109;-3.7744;0.0000;-0.0973;0.3076
1047;-0.5994;-3.7744;0.0000;-0.1099;0.2985
1048;-0.2878;-3.7744;0.0000;-0.0898;0.3041
1049;0.0240;-3.7743;0.0000;-0.0809;0.3027
1050;0.3357;-3.7743;0.0000;-0.0691;0.3009
1051;0.6474;-3.7743;0.0000;-0.0765;0.3051
1052;0.9590;-3.7743;0.0000;-0.0971;0.3113
1053;1.2707;-3.7742;0.0000;-0.1012;0.3251
1054;1.5823;-3.7741;0.0000;-0.1046;0.3153
1055;1.8939;-3.7740;0.0000;-0.1041;0.2949
1056;2.2057;-3.7740;0.0000;-0.0886;0.2948
1057;2.5176;-3.7739;0.0000;-0.0907;0.2974
1058;2.8299;-3.7739;0.0000;-0.0935;0.2915
1059;3.1429;-3.7759;0.0000;-0.0784;0.2876
1060;3.4616;-3.7882;0.0000;-0.0652;0.2950
1061;-4.4088;-4.0374;0.0000;-0.1039;0.3366
1062;-4.1492;-4.0452;0.0000;-0.0797;0.3488
1063;-3.8563;-4.0466;0.0000;-0.0802;0.3422
1064;-3.5532;-4.0465;0.0000;-0.0805;0.3450
1065;-3.2455;-4.0462;0.0000;-0.0454;0.3651
1066;-2.9354;-4.0459;0.0000;-0.0649;0.3790
1067;-2.6246;-4.0459;0.0000;-0.1024;0.3781
1068;-2.3133;-4.0458;0.0000;-0.0876;0.3633
1069;-2.0017;-4.0456;0.0000;-0.0759;0.3544
1070;-1.6900;-4.0456;0.0000;-0.0856;0.3534
1071;-1.3784;-4.0456;0.0000;-0.0878;0.3473
1072;-1.0667;-4.0457;0.0000;-0.0822;0.3308
1073;-0.7551;-4.0456;0.0000;-0.1028;0.3168
1074;-0.4434;-4.0456;0.0000;-0.1034;0.3097
1075;-0.1318;-4.0455;0.0000;-0.0892;0.3068
1076;0.1798;-4.0454;0.0000;-0.0915;0.3133
1077;0.4915;-4.0454;0.0000;-0.0720;0.3122
1078;0.8032;-4.0454;0.0000;-0.0764;0.3096
1079;1.1149;-4.0453;0.0000;-0.1030;0.3164
1080;1.4264;-4.0453;0.0000;-0.1030;0.3232
1081;1.7381;-4.0451;0.0000;-0.0962;0.3234
1082;2.0499;-4.0449;0.0000;-0.0825;0.3190
1083;2.3616;-4.0449;0.0000;-0.0811;0.3207
1084;2.6732;-4.0449;0.0000;-0.0972;0.3155
1085;2.9839;-4.0454;0.0000;-0.0882;0.3144
1086;3.2921;-4.0478;0.0000;-0.0775;0.3253
1087;3.5962;-4.0529;0.0000;-0.0737;0.3193
1088;-4.3247;-4.3241;0.0000;-0.0946;0.3526
1089;-4.0136;-4.3187;0.0000;-0.0682;0.3523
1090;-3.7074;-4.3189;0.0000;-0.0741;0.3496
1091;-3.3999;-4.3188;0.0000;-0.0745;0.3643
1092;-3.0905;-4.3186;0.0000;-0.0607;0.3780
1093;-2.7799;-4.3184;0.0000;-0.0797;0.3602
1094;-2.4686;-4.3181;0.0000;-0.0891;0.3415
1095;-2.1571;-4.3179;0.0000;-0.0772;0.3427
1096;-1.8455;-4.3178;0.0000;-0.0798;0.3474
1097;-1.5339;-4.3177;0.0000;-0.0953;0.3449
1098;-1.2222;-4.3176;0.0000;-0.0916;0.3339
1099;-0.9105;-4.3175;0.0000;-0.0911;0.3236
1100;-0.5989;-4.3173;0.0000;-0.1060;0.3185
1101;-0.2873;-4.3171;0.0000;-0.0967;0.3092
1102;0.0244;-4.3169;0.0000;-0.0883;0.3036
1103;0.3360;-4.3168;0.0000;-0.0786;0.3071
1104;0.6478;-4.3167;0.0000;-0.0641;0.2997
1105;0.9595;-4.3165;0.0000;-0.0879;0.2839
1106;1.2711;-4.3164;0.0000;-0.1037;0.2915
1107;1.5828;-4.3162;0.0000;-0.1001;0.3142
1108;1.8944;-4.3159;0.0000;-0.0951;0.3184
1109;2.2061;-4.3158;0.0000;-0.0791;0.3288
1110;2.5180;-4.3158;0.0000;-0.0811;0.3458
1111;2.8300;-4.3157;0.0000;-0.0824;0.3355
1112;3.1428;-4.3157;0.0000;-0.0801;0.3180
1113;3.4618;-4.3106;0.0000;-0.0881;0.3168
1114;-4.3964;-4.6128;0.0000;-0.0924;0.3474
1115;-4.1378;-4.5943;0.0000;-0.0771;0.3412
1116;-3.8503;-4.5936;0.0000;-0.0678;0.3458
1117;-3.5495;-4.5933;0.0000;-0.0665;0.3449
1118;-3.2425;-4.5929;0.0000;-0.0716;0.3405
1119;-2.9328;-4.5925;0.0000;-0.0810;0.3296
1120;-2.6220;-4.5920;0.0000;-0.0811;0.3206
1121;-2.3106;-4.5916;0.0000;-0.0736;0.3373
1122;-1.9989;-4.5912;0.0000;-0.0705;0.3383
1123;-1.6873;-4.5908;0.0000;-0.0920;0.3185
1124;-1.3757;-4.5905;0.0000;-0.1112;0.3132
1125;-1.0641;-4.5902;0.0000;-0.1026;0.3115
1126;-0.7524;-4.5898;0.0000;-0.0928;0.3039
1127;-0.4408;-4.5894;0.0000;-0.0961;0.2975
1128;-0.1291;-4.5890;0.0000;-0.0968;0.3016
1129;0.1825;-4.5886;0.0000;-0.0915;0.3135
1130;0.4943;-4.5884;0.0000;-0.0622;0.3124
1131;0.8061;-4.5879;0.0000;-0.0729;0.2955
1132;1.1177;-4.5875;0.0000;-0.0947;0.2948
1133;1.4294;-4.5873;0.0000;-0.0958;0.3187
1134;1.7410;-4.5870;0.0000;-0.0991;0.3367
1135;2.0527;-4.5865;0.0000;-0.0881;0.3396
1136;2.3644;-4.5863;0.0000;-0.0897;0.3402
1137;2.6756;-4.5862;0.0000;-0.0704;0.3327
1138;2.9853;-4.5858;0.0000;-0.0515;0.3088
1139;3.2896;-4.5838;0.0000;-0.0799;0.3015
1140;3.5707;-4.5595;0.0000;-0.0983;0.3036
1141;-4.2949;-4.8744;0.0000;-0.0828;0.3388
1142;-3.9954;-4.8731;0.0000;-0.0809;0.3363
1143;-3.6938;-4.8710;0.0000;-0.0701;0.3331
1144;-3.3876;-4.8696;0.0000;-0.0785;0.3118
1145;-3.0786;-4.8687;0.0000;-0.0815;0.2960
1146;-2.7681;-4.8677;0.0000;-0.0808;0.3052
1147;-2.4567;-4.8669;0.0000;-0.0719;0.3117
1148;-2.1452;-4.8663;0.0000;-0.0713;0.3179
1149;-1.8335;-4.8655;0.0000;-0.0807;0.3251
1150;-1.5217;-4.8647;0.0000;-0.0974;0.3232
1151;-1.2101;-4.8641;0.0000;-0.1116;0.3107
1152;-0.8984;-4.8634;0.0000;-0.1022;0.2969
1153;-0.5867;-4.8626;0.0000;-0.0925;0.3008
1154;-0.2750;-4.8618;0.0000;-0.0988;0.3140
1155;0.0367;-4.8612;0.0000;-0.1034;0.3250
1156;0.3484;-4.8606;0.0000;-0.0815;0.3170
1157;0.6602;-4.8598;0.0000;-0.0639;0.3233
1158;0.9720;-4.8590;0.0000;-0.0804;0.3389
1159;1.2838;-4.8584;0.0000;-0.0821;0.3231
1160;1.5955;-4.8578;0.0000;-0.0934;0.3168
1161;1.9072;-4.8571;0.0000;-0.0925;0.3319
1162;2.2191;-4.8564;0.0000;-0.0812;0.3162
1163;2.5312;-4.8558;0.0000;-0.0875;0.2965
1164;2.8440;-4.8546;0.0000;-0.0587;0.3131
1165;3.1603;-4.8514;0.0000;-0.0519;0.3182
1166;3.4902;-4.8411;0.0000;-0.0979;0.3213
1167;-4.3973;-5.1311;0.0000;-0.0907;0.3192
1168;-4.1179;-5.1519;0.0000;-0.0835;0.3352
1169;-3.8211;-5.1498;0.0000;-0.0760;0.3393
1170;-3.5165;-5.1477;0.0000;-0.0822;0.3398
1171;-3.2082;-5.1460;0.0000;-0.0794;0.3300
1172;-2.8978;-5.1446;0.0000;-0.0877;0.3268
1173;-2.5866;-5.1433;0.0000;-0.0879;0.3217
1174;-2.2749;-5.1420;0.0000;-0.0670;0.3067
1175;-1.9630;-5.1408;0.0000;-0.0723;0.3145
1176;-1.6512;-5.1396;0.0000;-0.0928;0.3301
1177;-1.3394;-5.1385;0.0000;-0.0973;0.3189
1178;-1.0275;-5.1372;0.0000;-0.1016;0.2960
1179;-0.7157;-5.1359;0.0000;-0.1086;0.2985
1180;-0.4039;-5.1348;0.0000;-0.0933;0.3138
1181;-0.0921;-5.1336;0.0000;-0.0923;0.3225
1182;0.2198;-5.1324;0.0000;-0.0875;0.3196
1183;0.5317;-5.1312;0.0000;-0.0752;0.3105
1184;0.8436;-5.1301;0.0000;-0.0856;0.3191
1185;1.1554;-5.1288;0.0000;-0.0783;0.3272
1186;1.4673;-5.1277;0.0000;-0.0682;0.3133
1187;1.7793;-5.1265;0.0000;-0.0912;0.3096
1188;2.0911;-5.1253;0.0000;-0.0856;0.3156
1189;2.4029;-5.1240;0.0000;-0.0779;0.3004
1190;2.7140;-5.1228;0.0000;-0.0709;0.2978
1191;3.0221;-5.1208;0.0000;-0.0530;0.3196
1192;3.3195;-5.1156;0.0000;-0.0622;0.3246
1193;3.5791;-5.1118;0.0000;-0.1049;0.3261
